TITLE:         BACODINE BURST TEXT LIGHTCURVE NOTICE
NOTICE_DATE:   Sun 25 Jan 98 20:43:02 UT
NOTICE_TYPE:   Lightcurve
TRIGGER_NUM:   6581
GRB_RA:        351.96d {+23h 27m 51s} (J2000),
               351.94d {+23h 27m 46s} (current),
               351.35d {+23h 25m 24s} (1950)
GRB_DEC:       +35.59d {+35d 35' 26"} (J2000),
               +35.58d {+35d 34' 48"} (current),
               +35.32d {+35d 18' 55"} (1950)
GRB_ERROR:     7.8 [deg radius, statistical only]
GRB_INTEN:     1619 [cnts]    Peak=49465 [cnts/sec]
GRB_TIME:      74368.73 SOD {20:39:28.73} UT
GRB_DATE:      10838 TJD;    25 DOY;   98/01/25
GRB_SC_AZ:      83.69 [deg]                        {XScan=61.72}
GRB_SC_EL:      27.62 [deg]  {Zenith_angle=62.38}  {Scan=11.86}
SC_X_RA:       293.66 [deg] (J2000)
SC_X_DEC:      -30.29 [deg]
SC_Z_RA:       269.94 [deg]
SC_Z_DEC:       57.46 [deg]
SUN_POSTN:     308.05d {+20h 32m 12s}  -18.85d {-18d 51' 01"}
SUN_DIST:       68.49 [deg]
MOON_POSTN:    274.73d {+18h 18m 55s}  -18.62d {-18d 37' 09"}
MOON_DIST:      90.87 [deg]
PROG_VERSION:  5.19
PROG_LEVEL:    1
COMMENTS:      Definite GRB.  
COMMENTS:      This notice is based on 2 1.024-sec samples of the light curve.  
PLANEWAVE_LIGHTCURVE_TO_FOLLOW:
 ABS_TIME  REL_TIME  C_20_50 C_50_100 C_100_300 C_GT_300 TRIG_FLAG
980125
20:39:32.62
74372
6581
 74357.473   -11.263    3724.7   3365.5   4391.0   3416.4   0
 74358.497   -10.239    3726.5   3202.5   4345.2   3493.1   0
 74359.521    -9.215    3700.3   3323.3   4354.4   3392.4   0
 74360.545    -8.191    3692.2   3381.1   4374.5   3451.4   0
 74361.569    -7.167    3829.5   3402.9   4375.3   3359.3   0
 74362.593    -6.143    3673.5   3292.3   4297.4   3458.5   0
 74363.617    -5.119    3708.0   3369.6   4345.1   3470.2   0
 74364.641    -4.095    3669.3   3319.8   4333.0   3405.0   0
 74365.665    -3.072    3640.7   3398.6   4164.4   3495.2   0
 74366.689    -2.047    3796.5   3350.9   4444.0   3536.7   0
 74367.713    -1.023    3750.0   3657.1   4639.7   3548.8   1
 74368.737      .000    3783.1   3532.7   4987.0   3474.2   1
 74369.761     1.024    3735.1   3653.7   4893.6   3434.6   1
 74370.785     2.047    3837.6   3495.6   4702.7   3645.9   1
 74371.809     3.072    3829.6   3715.4   4651.1   3369.0   1
 74372.833     4.095    3702.6   3553.9   4499.6   3395.0   1
 74373.857     5.120    3732.4   3571.0   4588.8   3458.2   1
 74374.881     6.144    3779.8   3468.2   4409.2   3489.2   1
 74375.905     7.168    3790.7   3415.1   4527.0   3412.8   1
 74376.929     8.191    3844.3   3617.0   4813.2   3429.0   1
 74377.953     9.216    3864.1   3790.2   4831.0   3385.2   1
 74378.977    10.239    3963.8   3720.7   4584.4   3446.9   1
 74380.001    11.264    3852.4   3630.8   4691.0   3444.8   1
 74381.025    12.288    3880.8   3637.1   4525.5   3426.5   1
 74382.049    13.312    3759.1   3657.0   4480.6   3510.9   1
 74383.073    14.335    3691.8   3512.8   4356.5   3518.0   1
 74384.097    15.360    3804.2   3527.8   4347.5   3490.1   1
 74385.121    16.383    3673.9   3395.4   4319.8   3465.8   1
 74386.145    17.408    3804.9   3490.5   4369.6   3455.2   1
 74387.169    18.432    3822.3   3371.0   4340.3   3460.5   1
 74388.193    19.456    3846.0   3421.5   4267.7   3402.9   1
 74389.217    20.479    3665.3   3442.9   4338.1   3420.0   1
 74390.241    21.504    3741.1   3419.2   4382.4   3440.2   1
 74391.265    22.527    3595.6   3357.1   4276.8   3377.2   1
 74392.289    23.552    3825.7   3313.7   4250.1   3439.4   1
 74393.313    24.576    3660.2   3437.3   4265.0   3415.0   1
 74394.337    25.600    3772.8   3453.1   4294.3   3503.8   1
 74395.361    26.623    3792.0   3391.4   4426.9   3464.4   1
 74396.385    27.648    3738.8   3447.9   4257.6   3323.3   1
 74397.409    28.671    3705.1   3408.6   4326.9   3430.3   1
 74398.433    29.696    3742.6   3508.1   4240.1   3477.7   1
 74399.457    30.720    3726.5   3447.1   4224.9   3333.1   1
 74400.481    31.744    3752.7   3438.1   4427.8   3421.1   1
 74401.505    32.767    3698.4   3461.3   4246.1   3364.3   1
 74402.529    33.792    3745.3   3697.2   4575.3   3364.2   1
 74403.553    34.815    3967.0   3913.5   4814.3   3508.6   1
 74404.577    35.840    4114.1   3993.7   4732.1   3462.3   1
 74405.601    36.864    4086.6   3835.1   4588.9   3567.0   1
 74406.625    37.888    4194.2   3732.9   4470.4   3419.4   1
 74407.649    38.911    3991.4   3607.7   4354.1   3426.1   1
 74408.673    39.936    4060.8   3681.7   4511.9   3423.5   1
 74409.697    40.959    4058.8   3842.5   4633.1   3445.0   1
 74410.721    41.984    3914.5   3869.0   4611.8   3403.6   1
 74411.745    43.008    3971.0   3787.0   4493.0   3395.3   1
 74412.769    44.032    4287.6   4258.6   4843.1   3528.3   1
 74413.793    45.055    4096.6   3765.8   4630.6   3392.9   1
 74414.817    46.080    4964.5   5455.3   7190.0   3773.4   1
 74415.841    47.103   12765.6  20283.6  30868.5   8760.5   1
 74416.865    48.128    8123.0   9867.7  10298.6   4051.2   1
 74417.889    49.152    5662.1   5591.2   5858.9   3567.9   1
 74418.913    50.176    6614.4   6498.0   6591.9   3510.2   1
 74419.937    51.199    6278.9   6295.4   6531.9   3524.0   1
 74420.961    52.224    6804.7   7656.4   7925.5   3677.3   1
 74421.985    53.247    6857.3   7208.4   6873.4   3605.7   1
 74423.009    54.272    6688.6   6622.9   6585.0   3503.6   1
 74424.033    55.296    5627.7   5452.0   5809.3   3643.6   1
 74425.057    56.320    4854.5   4536.1   4961.8   3485.6   1
 74426.081    57.343    4316.6   4090.2   4670.1   3497.2   1
 74427.105    58.368    4194.4   3914.8   4574.8   3319.5   1
 74428.129    59.391    4093.5   3750.2   4516.2   3478.8   1
 74429.153    60.416    3955.6   3683.5   4520.5   3415.9   1
 74430.177    61.440    3727.3   3456.5   4382.1   3403.5   1
 74431.201    62.464    3737.8   3396.8   4358.0   3373.3   1
 74432.225    63.487    3660.4   3491.9   4375.6   3342.7   1
 74433.249    64.512    3636.4   3404.0   4206.7   3483.0   1
 74434.273    65.535    3769.6   3343.7   4476.8   3369.9   1
 74435.297    66.560    3621.2   3429.3   4309.5   3396.7   1
 74436.321    67.584    3749.8   3432.4   4265.2   3411.9   1
 74437.345    68.608    3716.5   3394.2   4287.0   3506.5   1
 74438.369    69.631    3740.8   3491.7   4260.4   3482.1   1
 74439.393    70.656    3671.4   3468.9   4403.4   3428.9   1
 74440.417    71.679    3675.4   3366.8   4278.4   3520.1   1
 74441.441    72.704    3585.3   3457.3   4404.1   3324.7   1
 74442.465    73.728    3610.1   3479.1   4311.6   3426.7   1
 74443.489    74.752    3652.1   3401.6   4354.6   3433.0   1
 74444.513    75.775    3700.0   3462.6   4446.9   3446.2   1
 74445.537    76.800    3661.7   3408.9   4225.3   3446.6   1
 74446.561    77.823    3788.0   3403.4   4339.8   3379.3   1
 74447.585    78.848    3795.0   3397.7   4327.8   3447.5   1
 74448.609    79.872    3744.2   3352.8   4268.1   3306.4   1
 74449.633    80.896    3695.5   3488.4   4347.9   3418.7   1
 74450.657    81.919    3727.0   3335.3   4365.0   3306.9   1
 74451.681    82.944    3609.5   3349.2   4253.6   3349.5   1
 74452.705    83.967    3700.9   3384.2   4271.2   3332.2   1
 74453.729    84.992    3659.3   3402.8   4129.3   3397.1   1
 74454.753    86.016    3720.5   3400.5   4344.3   3267.7   1
 74455.777    87.040    3632.6   3246.8   4324.5   3402.2   1
 74456.801    88.063    3687.9   3384.9   4360.6   3387.6   1
 74457.825    89.088    3611.5   3351.2   4150.5   3278.4   1
 74458.849    90.111    3758.8   3359.1   4186.4   3370.7   1
 74459.873    91.136    3541.3   3314.9   4331.0   3423.3   1
 74460.897    92.160    3680.3   3336.6   4317.2   3344.2   1
 74461.921    93.184    3653.8   3275.5   4413.5   3452.9   1
 74462.945    94.207    3688.2   3300.4   4201.0   3344.4   1
 74463.969    95.232    3648.3   3472.1   4393.1   3343.6   1
 74464.993    96.255    3681.1   3395.9   4369.6   3374.3   1
 74466.017    97.280    3600.8   3321.1   4256.4   3346.3   1
 74467.041    98.304    3630.7   3207.1   4420.9   3517.6   1
 74468.065    99.328    3698.7   3387.2   4218.4   3395.0   1
 74469.089   100.351    3662.8   3286.8   4262.0   3450.6   1
 74470.113   101.376    3565.4   3487.5   4281.0   3361.0   1
 74471.137   102.399    3611.6   3355.4   4188.1   3476.5   1
 74472.161   103.424    3674.6   3486.6   4329.6   3304.4   1
 74473.185   104.448    3723.8   3390.9   4261.9   3453.2   1
 74474.209   105.472    3649.4   3425.4   4245.5   3296.3   1
 74475.233   106.495    3755.4   3357.0   4291.2   3456.0   1
 74476.257   107.520    3644.4   3392.8   4353.0   3306.6   1
 74477.281   108.543    3738.1   3358.5   4277.5   3314.8   1
 74478.305   109.568    3676.2   3343.4   4385.8   3406.2   1
 74479.329   110.592    3616.4   3340.0   4317.5   3411.4   1
 74480.353   111.616    3676.7   3357.8   4303.6   3321.1   1
 74481.377   112.639    3639.9   3194.9   4153.3   3447.9   1
 74482.401   113.664    3650.1   3289.5   4350.5   3390.0   1
 74483.425   114.687    3675.6   3299.9   4262.1   3474.5   1
 74484.449   115.712    3670.6   3366.0   4384.1   3423.9   1
 74485.473   116.736    3638.8   3484.5   4159.6   3306.1   1
 74486.497   117.760    3727.9   3339.3   4209.9   3458.5   1
 74487.521   118.783    3562.1   3403.1   4230.1   3405.3   1
 74488.545   119.808    3624.8   3311.9   4277.4   3360.8   1
 74489.569   120.831    3756.7   3498.4   4240.9   3488.4   1
 74490.593   121.855    3664.2   3268.8   4273.6   3461.9   1
 74491.617   122.879    3680.6   3468.3   4316.3   3320.7   1
 74492.641   123.904    3704.5   3388.1   4445.9   3433.1   1
 74493.665   124.927    3709.0   3271.2   4282.7   3488.7   1
 74494.689   125.952    3574.3   3349.5   4376.5   3478.8   1
 74495.713   126.975    3705.1   3369.6   4168.7   3372.7   1
 74496.737   128.000    3616.6   3384.9   4228.2   3350.6   1
 74497.761   129.023    3664.0   3369.1   4344.6   3437.9   1
 74498.785   130.048    3549.0   3414.6   4356.6   3343.6   1
 74499.809   131.072    3774.9   3235.4   4266.2   3353.5   1
 74500.833   132.096    3646.6   3381.6   4186.5   3316.4   1
 74501.857   133.119    3494.8   3276.3   4177.4   3240.9   1
 74502.881   134.144    3636.5   3309.0   4240.9   3428.0   1
 74503.905   135.167    3731.2   3306.5   4317.0   3336.5   1
 74504.929   136.192    3716.1   3410.8   4338.7   3443.9   1
 74505.953   137.216    3678.6   3241.6   4196.4   3365.6   1
 74506.977   138.240    3590.5   3413.7   4282.8   3390.4   1
 74508.001   139.263    3539.3   3360.9   4263.9   3304.2   1
 74509.025   140.288    3480.7   3250.3   4330.3   3322.4   1
 74510.049   141.311    3568.3   3344.9   4160.9   3433.6   1
 74511.073   142.336    3532.7   3320.1   4226.9   3364.6   1
 74512.097   143.360    3652.0   3385.8   4112.8   3548.5   1
 74513.121   144.384    3659.7   3269.4   4315.7   3373.8   1
 74514.145   145.407    3570.2   3288.7   4221.8   3467.4   1
 74515.169   146.432    3667.4   3452.7   4275.0   3304.0   1
 74516.193   147.455    3556.9   3292.7   4353.9   3330.9   1
 74517.217   148.480    3665.7   3348.9   4185.5   3314.7   1
 74518.241   149.504    3635.8   3431.6   4272.1   3277.8   1
 74519.265   150.528    3610.8   3367.6   4174.8   3398.5   1
 74520.289   151.551    3654.8   3425.0   4205.5   3333.8   1
 74521.313   152.576    3603.8   3386.2   4283.7   3449.6   1
 74522.337   153.599    3631.4   3421.5   4256.5   3326.1   1
 74523.361   154.624    3683.0   3254.7   4137.2   3451.7   1
 74524.385   155.648    3679.0   3438.4   4390.3   3301.1   1
 74525.409   156.672    3708.5   3400.9   4163.5   3505.1   1
 74526.433   157.695    3640.9   3263.7   4275.4   3435.7   1
 74527.457   158.720    3758.2   3484.5   4287.5   3451.2   1
 74528.481   159.743    3541.0   3308.8   4230.8   3357.3   1
 74529.505   160.768    3760.3   3544.1   4107.3   3345.1   1
 74530.529   161.792    3678.7   3411.2   4295.5   3308.0   1
 74531.553   162.816    3690.6   3383.1   4163.4   3400.8   1
 74532.577   163.839    3734.2   3307.1   4237.6   3270.3   1
 74533.601   164.864    3609.3   3533.3   4260.6   3367.4   1
 74534.625   165.887    3638.3   3403.0   4222.4   3350.2   1
 74535.649   166.912    3680.3   3287.3   4171.9   3366.0   1
 74536.673   167.936    3798.4   3414.3   4326.3   3351.3   1
 74537.697   168.960    3637.1   3346.8   4260.3   3288.9   1
 74538.721   169.983    3537.5   3366.1   4200.9   3363.5   1
 74539.745   171.008    3691.3   3406.9   4143.9   3359.5   1
 74540.769   172.031    3569.7   3418.4   4288.3   3393.1   1
 74541.793   173.056    3678.0   3420.6   4365.2   3350.7   1
 74542.817   174.080    3595.1   3359.8   4175.3   3335.2   1
 74543.841   175.104    3571.0   3407.6   4184.1   3374.9   1
 74544.865   176.127    3632.9   3362.7   4340.2   3439.3   1
 74545.889   177.152    3589.8   3391.2   4282.8   3300.9   1
 74546.913   178.175    3654.4   3327.0   4375.4   3297.2   1
 74547.937   179.200    3720.3   3382.5   4330.5   3359.0   1
 74548.961   180.224    3714.4   3468.7   4287.3   3404.7   1
 74549.985   181.248    3741.5   3296.8   4140.1   3473.6   1
 74551.009   182.271    3602.0   3267.8   4294.5   3410.6   1
 74552.033   183.296    3694.7   3387.2   4325.7   3298.4   1
 74553.057   184.319    3699.3   3423.2   4421.1   3423.4   1
 74554.081   185.344    3619.3   3325.7   4372.1   3385.4   1
 74555.105   186.368    3710.1   3338.7   4314.3   3367.0   1
 74556.129   187.392    3681.0   3384.6   4295.0   3382.2   1
 74557.153   188.415    3780.2   3374.0   4257.3   3392.7   1
 74558.177   189.440    3613.6   3392.2   4342.1   3298.9   1
 74559.201   190.463    3733.5   3394.1   4373.7   3389.7   1
 74560.225   191.488    3681.6   3206.3   4282.6   3437.8   1
 74561.249   192.512    3659.8   3352.0   4249.0   3264.1   1
 74562.273   193.536    3705.5   3431.2   4340.5   3334.9   1
 74563.297   194.559    3576.1   3272.0   4208.9   3426.4   1
 74564.321   195.584    3797.0   3354.5   4284.5   3388.9   1
 74565.345   196.607    3684.9   3453.5   4250.6   3409.2   1
 74566.369   197.632    3742.6   3303.1   4266.5   3398.9   1
 74567.393   198.656    3559.4   3399.6   4196.4   3389.8   1
 74568.417   199.680    3752.0   3395.1   4232.5   3330.1   1
 74569.441   200.703    3661.5   3325.0   4251.4   3425.3   1
 74570.465   201.728    3586.5   3372.1   4247.1   3328.3   1
 74571.489   202.751    3602.8   3393.1   4163.5   3395.1   1
