Header:
Instrument	ASRC_U111
Source	Sun
Location	TMTF
Environment	Outdoors
Year	2004
Day	173
Date	2004JUN21
Operation	Discrete
Measurement_purpose	Irradiance
Number_of_scans	1
Number_of_columns	4
Number_of_rows	701
Start_time	15.49992	[UTC]
Stop_time	15.78186	[UTC]
Start_wavelength	290.00	[nm]
Stop_wavelength	360.00	[nm]
Increment_wavelength	0.10	[nm]
Dark_signal	0.54545	[p_s^-1]
ForeOptic_temperature	16.42	[ns]
Front_temperature	16.42	[ns]
Back_temperature	22.93	[ns]
Inside_temperature	22.47	[ns]
Shelter_temperature	18.62	[ns]
PSUnit_temperature	22.03	[ns]
AirCond_temperature	9.25	[ns]
Outside_temperature	24.42	[ns]
Comments	none
Formatted_file	2004173f08.u11
Responsivity_file	03352Rsm.u11
Analysis_program	Calc_Irrad.c
Labels:
Wavelength	Irradiance	dE(R)/E	dE(S)/E
[nm]	[mW_m^-2_nm^-1]
Data:
290.008	-0.00085	0.1354	0.0000
290.108	-0.00085	0.1354	-0.0000
290.208	-0.00085	0.1354	-0.0000
290.308	0.00071	0.1483	-0.0000
290.408	0.00226	0.0829	-0.0000
290.508	-0.00085	0.1354	-0.0000
290.608	-0.00084	0.1354	-0.0000
290.708	-0.00084	0.1354	-0.0000
290.808	0.00070	0.1483	-0.0000
290.908	-0.00084	0.1354	-0.0000
291.008	0.00070	0.1483	-0.0000
291.108	-0.00084	0.1354	0.0000
291.208	0.00070	0.1483	0.0000
291.308	0.00070	0.1483	0.0000
291.408	-0.00084	0.1354	0.0000
291.508	0.00070	0.1483	0.0000
291.608	-0.00084	0.1354	0.0000
291.708	0.00070	0.1483	0.0000
291.808	0.00070	0.1483	0.0000
291.908	0.00070	0.1483	0.0000
292.009	-0.00084	0.1354	0.0000
292.109	0.00070	0.1483	-0.0000
292.209	0.00070	0.1483	-0.0000
292.309	-0.00084	0.1354	-0.0000
292.409	-0.00083	0.1354	-0.0000
292.509	-0.00083	0.1354	-0.0000
292.609	0.00069	0.1483	-0.0000
292.709	0.00069	0.1483	-0.0000
292.809	0.00069	0.1483	-0.0000
292.909	-0.00083	0.1354	-0.0000
293.009	0.00069	0.1483	-0.0000
293.109	-0.00083	0.1354	0.0000
293.209	0.00069	0.1483	0.0000
293.309	0.00221	0.0829	0.0000
293.409	0.00069	0.1483	0.0000
293.509	0.00069	0.1483	0.0000
293.609	0.00221	0.0829	0.0000
293.709	0.00221	0.0829	0.0000
293.809	0.00069	0.1483	0.0000
293.909	0.00221	0.0829	0.0000
294.009	0.00221	0.0829	0.0000
294.109	0.00069	0.1483	-0.0000
294.209	0.00220	0.0829	-0.0000
294.309	0.00069	0.1483	-0.0000
294.409	0.00220	0.0829	-0.0000
294.509	0.00220	0.0829	-0.0000
294.609	0.00674	0.0474	-0.0000
294.709	0.00371	0.0638	-0.0000
294.809	0.00069	0.1483	-0.0000
294.909	0.00371	0.0638	-0.0000
295.009	0.00219	0.0829	-0.0000
295.109	0.00672	0.0474	0.0000
295.209	0.00973	0.0394	0.0000
295.309	0.00671	0.0474	0.0000
295.409	0.00671	0.0474	0.0000
295.509	0.01122	0.0366	0.0000
295.609	0.01423	0.0325	0.0000
295.709	0.01121	0.0366	0.0000
295.810	0.01872	0.0283	0.0000
295.910	0.01871	0.0283	0.0000
296.010	0.01570	0.0309	0.0000
296.110	0.02020	0.0273	-0.0000
296.210	0.03069	0.0221	-0.0000
296.310	0.04268	0.0187	-0.0000
296.410	0.03216	0.0216	-0.0000
296.510	0.02016	0.0273	-0.0000
296.610	0.02165	0.0263	-0.0000
296.710	0.01715	0.0295	-0.0000
296.810	0.03360	0.0211	-0.0000
296.910	0.02910	0.0227	-0.0000
297.010	0.01862	0.0283	-0.0000
297.110	0.04552	0.0181	0.0000
297.210	0.05148	0.0170	0.0000
297.310	0.03204	0.0216	0.0000
297.410	0.06786	0.0148	0.0000
297.510	0.09320	0.0127	0.0000
297.610	0.08273	0.0134	0.0000
297.710	0.14980	0.0100	0.0000
297.810	0.15720	0.0097	0.0000
297.910	0.11989	0.0111	0.0000
298.010	0.12580	0.0109	0.0000
298.110	0.09597	0.0125	-0.0000
298.210	0.10338	0.0120	-0.0000
298.310	0.09888	0.0123	-0.0000
298.410	0.07951	0.0137	-0.0000
298.510	0.09435	0.0126	-0.0000
298.610	0.14040	0.0103	-0.0000
298.710	0.14630	0.0101	-0.0000
298.810	0.15665	0.0097	-0.0000
298.910	0.20857	0.0084	-0.0000
299.010	0.30202	0.0070	-0.0000
299.110	0.29302	0.0071	0.0000
299.210	0.28106	0.0073	0.0000
299.310	0.32695	0.0067	0.0000
299.410	0.18452	0.0090	0.0000
299.510	0.24672	0.0078	0.0000
299.610	0.44075	0.0058	0.0000
299.710	0.55321	0.0052	0.0000
299.810	0.55009	0.0052	0.0000
299.910	0.33230	0.0067	0.0000
300.010	0.27893	0.0073	0.0000
300.110	0.24482	0.0078	-0.0000
300.210	0.32907	0.0067	-0.0000
300.310	0.29202	0.0071	-0.0000
300.410	0.53294	0.0053	-0.0000
300.510	0.66880	0.0047	-0.0000
300.611	0.67011	0.0047	-0.0000
300.711	0.50596	0.0054	-0.0000
300.811	0.44528	0.0058	-0.0000
300.911	0.57956	0.0050	-0.0000
301.011	0.93820	0.0040	-0.0000
301.111	1.12841	0.0036	0.0000
301.211	0.84777	0.0042	0.0000
301.311	1.24154	0.0034	0.0000
301.411	1.21326	0.0035	0.0000
301.511	1.26906	0.0034	0.0000
301.611	1.27028	0.0034	0.0000
301.711	1.13883	0.0036	0.0000
301.811	0.93963	0.0040	0.0000
301.911	0.83334	0.0042	0.0000
302.011	0.62543	0.0049	0.0000
302.111	0.47211	0.0056	-0.0000
302.211	1.30133	0.0034	-0.0000
302.311	2.04635	0.0027	-0.0000
302.411	1.66464	0.0030	-0.0000
302.511	1.73359	0.0029	-0.0000
302.611	1.21221	0.0035	-0.0000
302.711	2.94740	0.0022	-0.0000
302.811	3.38262	0.0021	-0.0000
302.911	2.84948	0.0023	-0.0000
303.011	2.93740	0.0022	-0.0000
303.111	2.52070	0.0024	0.0000
303.211	3.74423	0.0020	0.0000
303.311	4.20121	0.0019	0.0000
303.411	3.84044	0.0020	0.0000
303.511	4.42820	0.0018	0.0000
303.611	4.44539	0.0018	0.0000
303.711	2.24706	0.0026	0.0000
303.811	2.46147	0.0024	0.0000
303.911	4.01636	0.0019	0.0000
304.011	3.85286	0.0020	0.0000
304.111	3.29996	0.0021	0.0000
304.211	2.93378	0.0022	0.0000
304.311	4.67329	0.0018	0.0000
304.411	5.14898	0.0017	0.0000
304.511	5.41306	0.0016	0.0000
304.611	6.34847	0.0015	0.0000
304.711	3.49533	0.0021	0.0000
304.811	3.56268	0.0020	0.0000
304.911	6.69832	0.0015	0.0000
305.011	6.74495	0.0015	0.0000
305.111	6.61682	0.0015	0.0000
305.211	10.41416	0.0012	0.0000
305.311	8.49878	0.0013	0.0000
305.411	6.11517	0.0015	0.0000
305.511	7.38946	0.0014	0.0000
305.611	8.37882	0.0013	0.0000
305.711	4.74166	0.0018	0.0000
305.811	4.00007	0.0019	0.0000
305.911	3.79441	0.0020	0.0000
306.011	6.95813	0.0015	0.0000
306.111	9.23059	0.0013	0.0000
306.211	9.31996	0.0013	0.0000
306.311	8.64890	0.0013	0.0000
306.411	6.44088	0.0015	0.0000
306.511	8.68978	0.0013	0.0000
306.611	8.02764	0.0014	0.0000
306.711	5.70378	0.0016	0.0000
306.811	8.12004	0.0013	0.0000
306.911	11.49344	0.0011	0.0000
307.012	12.45791	0.0011	0.0000
307.112	13.12149	0.0011	0.0000
307.212	10.81242	0.0012	0.0000
307.312	13.04682	0.0011	0.0000
307.412	14.28157	0.0010	0.0000
307.512	10.89940	0.0012	0.0000
307.612	12.47774	0.0011	0.0000
307.712	15.98230	0.0010	0.0000
307.812	11.89979	0.0011	0.0000
307.912	15.79801	0.0010	0.0000
308.012	15.38437	0.0010	0.0000
308.112	13.46435	0.0010	0.0000
308.212	10.34907	0.0012	0.0000
308.312	12.30227	0.0011	0.0000
308.412	16.58006	0.0009	0.0000
308.512	19.83029	0.0009	0.0000
308.612	18.19516	0.0009	0.0000
308.712	14.22056	0.0010	0.0000
308.812	12.58074	0.0011	0.0000
308.912	16.73176	0.0009	0.0000
309.012	14.64988	0.0010	0.0000
309.112	11.05494	0.0012	0.0000
309.212	12.43186	0.0011	0.0000
309.312	7.71420	0.0014	0.0000
309.412	15.19648	0.0010	0.0000
309.512	21.70706	0.0008	0.0000
309.612	17.21695	0.0009	0.0000
309.712	11.70370	0.0011	0.0000
309.812	19.63184	0.0009	0.0000
309.912	18.13571	0.0009	0.0000
310.012	9.16505	0.0013	0.0000
310.112	10.88082	0.0012	0.0000
310.212	12.97899	0.0011	0.0000
310.312	23.74553	0.0008	0.0000
310.412	26.28455	0.0007	0.0000
310.512	25.04430	0.0008	0.0000
310.612	25.72258	0.0008	0.0000
310.712	28.72565	0.0007	0.0000
310.812	32.98653	0.0007	0.0000
310.912	32.17458	0.0007	0.0000
311.012	27.02243	0.0007	0.0000
311.112	29.45318	0.0007	0.0000
311.212	29.95301	0.0007	0.0000
311.312	33.94985	0.0007	0.0000
311.412	25.17104	0.0008	0.0000
311.512	31.79179	0.0007	0.0000
311.612	30.35422	0.0007	0.0000
311.712	25.35640	0.0008	0.0000
311.812	26.75129	0.0007	0.0000
311.912	26.72457	0.0007	0.0000
312.012	25.82639	0.0008	0.0000
312.112	26.86707	0.0007	0.0000
312.212	25.50645	0.0008	0.0000
312.312	33.66011	0.0007	0.0000
312.412	39.54018	0.0006	0.0000
312.512	28.41804	0.0007	0.0000
312.612	29.88258	0.0007	0.0000
312.712	35.53012	0.0006	0.0000
312.812	36.18406	0.0006	0.0000
312.912	34.72208	0.0007	0.0000
313.012	35.75790	0.0006	0.0000
313.112	34.72603	0.0007	0.0000
313.212	33.04976	0.0007	0.0000
313.312	34.50756	0.0007	0.0000
313.412	27.02574	0.0007	0.0000
313.512	35.34802	0.0006	0.0000
313.612	33.55467	0.0007	0.0000
313.712	36.06668	0.0006	0.0000
313.812	44.53515	0.0006	0.0000
313.912	45.31717	0.0006	0.0000
314.012	40.00785	0.0006	0.0000
314.112	46.75805	0.0006	0.0000
314.212	45.69576	0.0006	0.0000
314.312	31.79693	0.0007	0.0000
314.412	16.68061	0.0009	0.0000
314.512	28.06684	0.0007	0.0000
314.612	41.07946	0.0006	0.0000
314.712	37.03952	0.0006	0.0000
314.812	41.48428	0.0006	0.0000
314.912	53.70082	0.0005	0.0000
315.012	43.17815	0.0006	0.0000
315.112	47.31703	0.0006	0.0000
315.212	44.78456	0.0006	0.0000
315.312	46.62016	0.0006	0.0000
315.412	41.13848	0.0006	0.0000
315.512	40.65381	0.0006	0.0000
315.612	41.26212	0.0006	0.0000
315.712	26.70438	0.0007	0.0000
315.812	26.86395	0.0007	0.0000
315.912	25.28925	0.0008	0.0000
316.012	32.69357	0.0007	0.0000
316.112	29.17574	0.0007	0.0000
316.212	36.74749	0.0006	0.0000
316.312	48.17324	0.0006	0.0000
316.412	44.56454	0.0006	0.0000
316.512	44.28606	0.0006	0.0000
316.612	43.48012	0.0006	0.0000
316.712	57.75385	0.0005	0.0000
316.812	46.11650	0.0006	0.0000
316.912	45.50182	0.0006	0.0000
317.012	56.57962	0.0005	0.0000
317.112	65.20731	0.0005	0.0000
317.212	62.10131	0.0005	0.0000
317.312	63.21279	0.0005	0.0000
317.412	60.11735	0.0005	0.0000
317.512	50.97729	0.0005	0.0000
317.612	61.52931	0.0005	0.0000
317.712	63.76984	0.0005	0.0000
317.812	46.58947	0.0006	0.0000
317.912	35.99583	0.0006	0.0000
318.012	36.97369	0.0006	0.0000
318.112	39.01404	0.0006	0.0000
318.212	39.05096	0.0006	0.0000
318.312	43.86091	0.0006	0.0000
318.412	49.41731	0.0005	0.0000
318.512	50.96517	0.0005	0.0000
318.612	58.43270	0.0005	0.0000
318.712	55.17367	0.0005	0.0000
318.812	57.73806	0.0005	0.0000
318.912	78.52453	0.0004	0.0000
319.012	71.21896	0.0005	0.0000
319.112	53.36040	0.0005	0.0000
319.212	38.53605	0.0006	0.0000
319.312	37.30342	0.0006	0.0000
319.412	51.04653	0.0005	0.0000
319.512	52.87228	0.0005	0.0000
319.612	51.95922	0.0005	0.0000
319.712	48.67821	0.0006	0.0000
319.812	70.36627	0.0005	0.0000
319.912	70.47297	0.0005	0.0000
320.012	48.40221	0.0006	0.0000
320.112	61.34709	0.0005	0.0000
320.212	64.59936	0.0005	0.0000
320.312	64.05029	0.0005	0.0000
320.412	79.95062	0.0004	0.0000
320.512	69.47374	0.0005	0.0000
320.612	76.88803	0.0004	0.0000
320.712	76.95796	0.0004	0.0000
320.812	72.34166	0.0005	0.0000
320.912	60.34293	0.0005	0.0000
321.012	57.15853	0.0005	0.0000
321.112	53.56932	0.0005	0.0000
321.212	48.51682	0.0006	0.0000
321.312	54.97377	0.0005	0.0000
321.412	43.39682	0.0006	0.0000
321.512	61.45887	0.0005	0.0000
321.612	66.24447	0.0005	0.0000
321.712	53.49390	0.0005	0.0000
321.812	74.97948	0.0004	0.0000
321.912	72.57839	0.0005	0.0000
322.012	65.79519	0.0005	0.0000
322.112	70.96765	0.0005	0.0000
322.212	47.02194	0.0006	0.0000
322.312	54.27375	0.0005	0.0000
322.412	74.34971	0.0004	0.0000
322.512	54.86924	0.0005	0.0000
322.612	46.12112	0.0006	0.0000
322.712	52.14668	0.0005	0.0000
322.812	43.65355	0.0006	0.0000
322.912	44.29214	0.0006	0.0000
323.012	48.65874	0.0006	0.0000
323.112	61.17493	0.0005	0.0000
323.212	73.26301	0.0005	0.0000
323.312	62.63574	0.0005	0.0000
323.412	51.77079	0.0005	0.0000
323.512	61.00911	0.0005	0.0000
323.612	57.31900	0.0005	0.0000
323.712	60.93533	0.0005	0.0000
323.812	79.18660	0.0004	0.0000
323.912	54.22679	0.0005	0.0000
324.012	78.57851	0.0004	0.0000
324.112	81.81522	0.0004	0.0000
324.212	69.26128	0.0005	0.0000
324.312	73.09196	0.0005	0.0000
324.412	67.66510	0.0005	0.0000
324.512	80.33272	0.0004	0.0000
324.612	84.64036	0.0004	0.0000
324.712	64.07946	0.0005	0.0000
324.812	57.37647	0.0005	0.0000
324.912	60.96128	0.0005	0.0000
325.012	66.15210	0.0005	0.0000
325.112	64.12004	0.0005	0.0000
325.212	73.05222	0.0005	0.0000
325.312	74.00845	0.0005	0.0000
325.412	63.60375	0.0005	0.0000
325.512	95.44135	0.0004	0.0000
325.612	90.39420	0.0004	0.0000
325.712	87.72640	0.0004	0.0000
325.812	90.31456	0.0004	0.0000
325.912	102.28171	0.0004	0.0000
326.012	97.86021	0.0004	0.0000
326.112	97.65150	0.0004	0.0000
326.212	92.90921	0.0004	0.0000
326.312	100.28623	0.0004	0.0000
326.412	86.47533	0.0004	0.0000
326.512	75.70539	0.0004	0.0000
326.612	101.45532	0.0004	0.0000
326.712	101.46090	0.0004	0.0000
326.812	102.17074	0.0004	0.0000
326.912	99.60744	0.0004	0.0000
327.012	95.45800	0.0004	0.0000
327.112	77.74667	0.0004	0.0000
327.212	82.03662	0.0004	0.0000
327.312	101.07665	0.0004	0.0000
327.412	84.79433	0.0004	0.0000
327.512	104.70337	0.0004	0.0000
327.612	87.31364	0.0004	0.0000
327.712	80.20780	0.0004	0.0000
327.812	90.63570	0.0004	0.0000
327.912	75.23994	0.0004	0.0000
328.012	79.81760	0.0004	0.0000
328.112	88.80540	0.0004	0.0000
328.212	80.82474	0.0004	0.0000
328.312	79.90887	0.0004	0.0000
328.412	96.69801	0.0004	0.0000
328.512	85.25011	0.0004	0.0000
328.612	79.37362	0.0004	0.0000
328.712	61.41009	0.0005	0.0000
328.812	82.41428	0.0004	0.0000
328.912	91.15933	0.0004	0.0000
329.012	114.06724	0.0004	0.0000
329.112	100.80120	0.0004	0.0000
329.212	97.44904	0.0004	0.0000
329.312	109.38921	0.0004	0.0000
329.412	118.51833	0.0004	0.0000
329.512	100.02333	0.0004	0.0000
329.612	107.82473	0.0004	0.0000
329.712	112.74976	0.0004	0.0000
329.811	101.45107	0.0004	0.0000
329.911	104.53003	0.0004	0.0000
330.011	125.96749	0.0003	0.0000
330.111	124.86830	0.0003	0.0000
330.211	89.89857	0.0004	0.0000
330.311	85.95356	0.0004	0.0000
330.411	101.67387	0.0004	0.0000
330.511	89.34602	0.0004	0.0000
330.611	64.80894	0.0005	0.0000
330.711	77.64816	0.0004	0.0000
330.811	94.82230	0.0004	0.0000
330.911	98.05300	0.0004	0.0000
331.011	92.50488	0.0004	0.0000
331.111	96.87890	0.0004	0.0000
331.211	89.26768	0.0004	0.0000
331.311	91.34213	0.0004	0.0000
331.411	79.10854	0.0004	0.0000
331.511	79.84795	0.0004	0.0000
331.611	97.26231	0.0004	0.0000
331.711	95.70957	0.0004	0.0000
331.811	102.49612	0.0004	0.0000
331.911	100.40078	0.0004	0.0000
332.011	93.54203	0.0004	0.0000
332.111	100.25961	0.0004	0.0000
332.211	85.84851	0.0004	0.0000
332.311	68.89251	0.0005	0.0000
332.411	83.78999	0.0004	0.0000
332.511	102.26814	0.0004	0.0000
332.611	114.09547	0.0004	0.0000
332.711	86.76762	0.0004	0.0000
332.811	96.67155	0.0004	0.0000
332.911	79.31339	0.0004	0.0000
333.011	81.73914	0.0004	0.0000
333.111	108.87875	0.0004	0.0000
333.211	84.66380	0.0004	0.0000
333.311	106.90125	0.0004	0.0000
333.411	90.99105	0.0004	0.0000
333.511	79.73489	0.0004	0.0000
333.611	64.93588	0.0005	0.0000
333.711	70.44538	0.0005	0.0000
333.811	90.00657	0.0004	0.0000
333.911	92.73995	0.0004	0.0000
334.011	83.55534	0.0004	0.0000
334.111	99.60596	0.0004	0.0000
334.211	72.09927	0.0005	0.0000
334.311	100.16117	0.0004	0.0000
334.411	104.19488	0.0004	0.0000
334.511	99.89816	0.0004	0.0000
334.611	105.49759	0.0004	0.0000
334.711	100.63326	0.0004	0.0000
334.811	99.95290	0.0004	0.0000
334.911	57.20442	0.0005	0.0000
335.011	76.88506	0.0004	0.0000
335.111	109.56915	0.0004	0.0000
335.211	103.05748	0.0004	0.0000
335.311	104.83342	0.0004	0.0000
335.411	95.15994	0.0004	0.0000
335.511	112.45669	0.0004	0.0000
335.611	109.41066	0.0004	0.0000
335.711	110.65695	0.0004	0.0000
335.811	93.54266	0.0004	0.0000
335.911	60.62877	0.0005	0.0000
336.011	49.17168	0.0006	0.0000
336.111	41.99305	0.0006	0.0000
336.211	59.25140	0.0005	0.0000
336.310	93.79079	0.0004	0.0000
336.410	95.28510	0.0004	0.0000
336.510	110.80967	0.0004	0.0000
336.610	91.31145	0.0004	0.0000
336.710	78.28167	0.0004	0.0000
336.810	73.31349	0.0005	0.0000
336.910	62.19823	0.0005	0.0000
337.010	69.70055	0.0005	0.0000
337.110	71.34985	0.0005	0.0000
337.210	59.70434	0.0005	0.0000
337.310	69.97053	0.0005	0.0000
337.410	79.43265	0.0004	0.0000
337.510	99.43127	0.0004	0.0000
337.610	107.51984	0.0004	0.0000
337.710	109.45228	0.0004	0.0000
337.810	101.22138	0.0004	0.0000
337.910	77.60658	0.0004	0.0000
338.010	58.03720	0.0005	0.0000
338.110	67.96992	0.0005	0.0000
338.210	102.64099	0.0004	0.0000
338.310	93.25112	0.0004	0.0000
338.410	80.06320	0.0004	0.0000
338.510	103.18443	0.0004	0.0000
338.610	105.49303	0.0004	0.0000
338.710	109.80002	0.0004	0.0000
338.810	74.21220	0.0005	0.0000
338.910	102.07671	0.0004	0.0000
339.010	119.17706	0.0004	0.0000
339.110	86.16712	0.0004	0.0000
339.210	81.55611	0.0004	0.0000
339.310	62.26531	0.0005	0.0000
339.410	84.21433	0.0004	0.0000
339.510	99.32249	0.0004	0.0000
339.610	95.89481	0.0004	0.0000
339.710	105.26649	0.0004	0.0000
339.810	113.79255	0.0004	0.0000
339.910	101.63692	0.0004	0.0000
340.010	129.07135	0.0003	0.0000
340.110	116.29595	0.0004	0.0000
340.210	99.84315	0.0004	0.0000
340.310	104.11534	0.0004	0.0000
340.410	104.18675	0.0004	0.0000
340.510	88.62047	0.0004	0.0000
340.610	110.77980	0.0004	0.0000
340.710	81.88464	0.0004	0.0000
340.810	96.47896	0.0004	0.0000
340.910	90.80152	0.0004	0.0000
341.009	92.97569	0.0004	0.0000
341.109	107.25047	0.0004	0.0000
341.209	112.62115	0.0004	0.0000
341.309	81.82083	0.0004	0.0000
341.409	72.14570	0.0005	0.0000
341.509	65.90330	0.0005	0.0000
341.609	103.61732	0.0004	0.0000
341.709	94.29434	0.0004	0.0000
341.809	96.81655	0.0004	0.0000
341.909	114.12675	0.0004	0.0000
342.009	123.22995	0.0004	0.0000
342.109	108.12759	0.0004	0.0000
342.209	107.67686	0.0004	0.0000
342.309	85.02551	0.0004	0.0000
342.409	82.91405	0.0004	0.0000
342.509	110.29575	0.0004	0.0000
342.609	111.77818	0.0004	0.0000
342.709	83.58707	0.0004	0.0000
342.809	97.75664	0.0004	0.0000
342.909	119.33054	0.0004	0.0000
343.009	128.16536	0.0004	0.0000
343.109	118.74200	0.0004	0.0000
343.209	100.52000	0.0004	0.0000
343.309	81.21656	0.0004	0.0000
343.409	88.88640	0.0004	0.0000
343.509	129.47707	0.0003	0.0000
343.609	109.26080	0.0004	0.0000
343.709	91.11679	0.0004	0.0000
343.809	94.87473	0.0004	0.0000
343.909	100.02813	0.0004	0.0000
344.009	67.10777	0.0005	0.0000
344.109	40.32115	0.0006	0.0000
344.209	64.13651	0.0005	0.0000
344.309	69.34603	0.0005	0.0000
344.409	59.35364	0.0005	0.0000
344.509	94.95100	0.0004	0.0000
344.609	74.00576	0.0005	0.0000
344.709	85.65796	0.0004	0.0000
344.809	103.57187	0.0004	0.0000
344.908	94.85848	0.0004	0.0000
345.008	113.75594	0.0004	0.0000
345.108	126.78302	0.0004	0.0000
345.208	95.78801	0.0004	0.0000
345.308	74.58261	0.0005	0.0000
345.408	117.52610	0.0004	0.0000
345.508	119.47868	0.0004	0.0000
345.608	106.05511	0.0004	0.0000
345.708	105.68117	0.0004	0.0000
345.808	86.77216	0.0004	0.0000
345.908	92.39125	0.0004	0.0000
346.008	77.07748	0.0005	0.0000
346.108	80.41452	0.0004	0.0000
346.208	79.56908	0.0004	0.0000
346.308	106.46303	0.0004	0.0000
346.408	117.03458	0.0004	0.0000
346.508	114.47167	0.0004	0.0000
346.608	70.29379	0.0005	0.0000
346.708	106.75031	0.0004	0.0000
346.808	122.51364	0.0004	0.0000
346.908	100.39805	0.0004	0.0000
347.008	123.80792	0.0004	0.0000
347.108	123.25961	0.0004	0.0000
347.208	93.81367	0.0004	0.0000
347.308	101.68693	0.0004	0.0000
347.408	87.56006	0.0004	0.0000
347.508	78.84958	0.0004	0.0000
347.608	72.30274	0.0005	0.0000
347.708	69.13473	0.0005	0.0000
347.808	109.11672	0.0004	0.0000
347.908	113.43436	0.0004	0.0000
348.008	106.12398	0.0004	0.0000
348.108	107.69852	0.0004	0.0000
348.207	111.29621	0.0004	0.0000
348.307	88.99274	0.0004	0.0000
348.407	91.60546	0.0004	0.0000
348.507	91.43236	0.0004	0.0000
348.607	102.72845	0.0004	0.0000
348.707	133.17567	0.0003	0.0000
348.807	119.27201	0.0004	0.0000
348.907	86.58784	0.0004	0.0000
349.007	80.48319	0.0004	0.0000
349.107	74.03271	0.0005	0.0000
349.207	110.45506	0.0004	0.0000
349.307	66.44593	0.0005	0.0000
349.407	114.96035	0.0004	0.0000
349.507	111.77705	0.0004	0.0000
349.607	84.02499	0.0004	0.0000
349.707	77.27074	0.0005	0.0000
349.807	78.53770	0.0005	0.0000
349.907	133.02327	0.0003	0.0000
350.007	132.31140	0.0003	0.0000
350.107	120.49666	0.0004	0.0000
350.207	119.23042	0.0004	0.0000
350.307	134.98755	0.0003	0.0000
350.407	150.16228	0.0003	0.0000
350.507	104.97241	0.0004	0.0000
350.607	113.15585	0.0004	0.0000
350.707	114.90826	0.0004	0.0000
350.807	129.87846	0.0004	0.0000
350.907	130.34671	0.0004	0.0000
351.007	90.33589	0.0004	0.0000
351.107	111.64870	0.0004	0.0000
351.206	111.57993	0.0004	0.0000
351.306	99.76349	0.0004	0.0000
351.406	84.81300	0.0004	0.0000
351.506	78.24573	0.0005	0.0000
351.606	123.12938	0.0004	0.0000
351.706	130.37875	0.0004	0.0000
351.806	141.48367	0.0003	0.0000
351.906	130.47357	0.0004	0.0000
352.006	109.55955	0.0004	0.0000
352.106	99.38071	0.0004	0.0000
352.206	106.67645	0.0004	0.0000
352.306	104.80605	0.0004	0.0000
352.406	75.74275	0.0005	0.0000
352.506	85.40899	0.0004	0.0000
352.606	63.12556	0.0005	0.0000
352.706	89.51420	0.0004	0.0000
352.806	113.89155	0.0004	0.0000
352.906	131.07178	0.0004	0.0000
353.006	114.97604	0.0004	0.0000
353.106	131.96550	0.0004	0.0000
353.206	100.22390	0.0004	0.0000
353.306	93.73908	0.0004	0.0000
353.406	139.59123	0.0003	0.0000
353.506	129.59312	0.0004	0.0000
353.606	123.19640	0.0004	0.0000
353.706	119.58562	0.0004	0.0000
353.806	108.00616	0.0004	0.0000
353.906	148.31950	0.0003	0.0000
354.005	144.72981	0.0003	0.0000
354.105	106.10976	0.0004	0.0000
354.205	106.68880	0.0004	0.0000
354.305	130.97464	0.0004	0.0000
354.405	138.05504	0.0003	0.0000
354.505	131.65654	0.0004	0.0000
354.605	126.95108	0.0004	0.0000
354.705	141.08722	0.0003	0.0000
354.805	102.58080	0.0004	0.0000
354.905	138.35236	0.0003	0.0000
355.005	138.36151	0.0003	0.0000
355.105	131.67307	0.0004	0.0000
355.205	126.13380	0.0004	0.0000
355.305	114.48951	0.0004	0.0000
355.405	103.82519	0.0004	0.0000
355.505	94.64240	0.0004	0.0000
355.605	143.77641	0.0003	0.0000
355.705	110.80402	0.0004	0.0000
355.805	122.31464	0.0004	0.0000
355.905	99.75817	0.0004	0.0000
356.005	122.71466	0.0004	0.0000
356.105	115.67165	0.0004	0.0000
356.205	122.57752	0.0004	0.0000
356.305	149.79967	0.0003	0.0000
356.405	134.25092	0.0003	0.0000
356.504	69.80006	0.0005	0.0000
356.604	57.98711	0.0005	0.0000
356.704	97.44282	0.0004	0.0000
356.804	119.39088	0.0004	0.0000
356.904	87.39817	0.0004	0.0000
357.004	42.09149	0.0006	0.0000
357.104	91.66504	0.0004	0.0000
357.204	80.75347	0.0004	0.0000
357.304	118.26580	0.0004	0.0000
357.404	95.38825	0.0004	0.0000
357.504	100.66190	0.0004	0.0000
357.604	112.41468	0.0004	0.0000
357.704	122.72142	0.0004	0.0000
357.804	99.73039	0.0004	0.0000
357.904	84.09621	0.0004	0.0000
358.004	88.91549	0.0004	0.0000
358.104	37.98842	0.0007	0.0000
358.204	53.67262	0.0006	0.0000
358.304	88.82787	0.0004	0.0000
358.404	92.87355	0.0004	0.0000
358.504	53.38157	0.0006	0.0000
358.604	60.87398	0.0005	0.0000
358.704	59.75460	0.0005	0.0000
358.804	85.01472	0.0004	0.0000
358.904	84.97271	0.0004	0.0000
359.003	86.63106	0.0004	0.0000
359.103	130.39795	0.0004	0.0000
359.203	134.46968	0.0003	0.0000
359.303	101.71714	0.0004	0.0000
359.403	109.89373	0.0004	0.0000
359.503	117.75416	0.0004	0.0000
359.603	132.33768	0.0004	0.0000
359.703	144.15416	0.0003	0.0000
359.803	126.46415	0.0004	0.0000
359.903	124.23352	0.0004	0.0000
360.003	142.08554	0.0003	0.0000
