# 1-D Scan File created by LabVIEW Control Panel  12/1/2007  11:34:27 AM; Scan time 0 hrs 7 min 53 sec. 
#
# Beamline 20 BM 
#
# User Comment:
# 48 h hyb, from 11/12/07, T=14.7K
#
#
# Amplifier Sensitivities:
# Preslit: 200 pA/V  I0: 2 nA/V  I1: 2 nA/V  Iref: 5 nA/V  
#
# Analog Input Voltages at start/end of scan:
# Preslit: 0.884/0.879  I0: 2.596/2.554  I1: 3.594/3.561  Iref: 0.794/0.789  
#
# Mono Info:
# 
#
# ID Info:
# 
#
# Motor Positions:
# Sample Hor (20bm:m36): 1300.000000 Sample Vert (20bm:m35): -299.937500 Janis_Vert (20bm:m27): 47250.312500 
#
# Detector Names/PVs:
# Preslit/20bm:scaler1_netA.B  I0/20bm:scaler1_netA.C  I1/20bm:scaler1_netA.D  Iref/20bm:scaler1_netA.E  DTcorr_I0/20bm:userCalc9.VAL  
# DXP12:total_Sum/20d1:dxpCalc12.VAL  DXP12:U Lalpha_Sum/20d1:dxpCalc1.VAL  DXP12:0:U Lalpha/20d1:dxp_mca0.R0  DXP12:1:U Lalpha/20d1:dxp_mca1.R0  DXP12:2:U Lalpha/20d1:dxp_mca2.R0  
# DXP12:3:U Lalpha/20d1:dxp_mca3.R0  DXP12:4:U Lalpha/20d1:dxp_mca4.R0  DXP12:5:U Lalpha/20d1:dxp_mca5.R0  DXP12:6:U Lalpha/20d1:dxp_mca6.R0  DXP12:7:U Lalpha/20d1:dxp_mca7.R0  
# DXP12:8:U Lalpha/20d1:dxp_mca8.R0  DXP12:9:U Lalpha/20d1:dxp_mca9.R0  DXP12:10:U Lalpha/20d1:dxp_mca10.R0  DXP12:11:U Lalpha/20d1:dxp_mca11.R0  
#
# Positioner names/Drive PVs/Readback PVs:
# Mono Energy */20bm:monoE.VAL/20bm:EnctoE.VAL  Scaler preset time */20bm:scaler1.TP/  
# Here is a readable list of column headings:
#  1) Mono Energy *        11) DXP12:1:U Lalpha     21) DXP12:11:U Lalpha    
#  2) Scaler preset time * 12) DXP12:2:U Lalpha     
#  3) Preslit              13) DXP12:3:U Lalpha     
#  4) I0                   14) DXP12:4:U Lalpha     
#  5) I1                   15) DXP12:5:U Lalpha     
#  6) Iref                 16) DXP12:6:U Lalpha     
#  7) DTcorr_I0            17) DXP12:7:U Lalpha     
#  8) DXP12:total_Sum      18) DXP12:8:U Lalpha     
#  9) DXP12:U Lalpha_Sum   19) DXP12:9:U Lalpha     
# 10) DXP12:0:U Lalpha     20) DXP12:10:U Lalpha    
#
# Column Headings:
#Mono Energy *        Scaler preset time * Preslit              I0                   I1                   Iref                 DTcorr_I0            DXP12:total_Sum      DXP12:U Lalpha_Sum   DXP12:0:U Lalpha     DXP12:1:U Lalpha     DXP12:2:U Lalpha     DXP12:3:U Lalpha     DXP12:4:U Lalpha     DXP12:5:U Lalpha     DXP12:6:U Lalpha     DXP12:7:U Lalpha     DXP12:8:U Lalpha     DXP12:9:U Lalpha     DXP12:10:U Lalpha    DXP12:11:U Lalpha    
       16970.71256432            2.00000000       172407.40625000       511545.81250000       702369.81250000       162593.79687500       509760.06250000        18217.00000000           81.00000000            6.00000000            5.00000000            5.00000000            8.00000000            7.00000000            7.00000000            6.00000000            6.00000000            5.00000000            4.00000000           10.00000000           12.00000000 
       16976.45932854            2.00000000       171849.39062500       509932.78125000       700623.75000000       162261.78125000       508171.09375000        18027.00000000           62.00000000            5.00000000            1.00000000            6.00000000            5.00000000            5.00000000            4.00000000            6.00000000            4.00000000            5.00000000            8.00000000            6.00000000            7.00000000 
       16980.69296806            2.00000000       172214.39062500       511038.78125000       701996.81250000       162638.78125000       509249.37500000        18273.00000000           77.00000000           12.00000000            0.00000000            5.00000000            8.00000000           12.00000000            6.00000000            4.00000000            6.00000000            2.00000000            9.00000000           10.00000000            3.00000000 
       16986.32004687            2.00000000       171957.39062500       510338.78125000       701751.81250000       162612.78125000       508567.53125000        18111.00000000           84.00000000            8.00000000            3.00000000           13.00000000            5.00000000            3.00000000            7.00000000           10.00000000           11.00000000            4.00000000            9.00000000            7.00000000            4.00000000 
       16991.06488352            2.00000000       171888.39062500       510323.78125000       701554.81250000       162663.79687500       508510.81250000        18542.00000000           73.00000000            7.00000000            7.00000000            7.00000000            6.00000000            8.00000000            8.00000000            6.00000000            5.00000000            2.00000000            7.00000000            4.00000000            6.00000000 
       16995.87570801            2.00000000       171863.39062500       510507.78125000       702138.81250000       162890.78125000       508710.06250000        18378.00000000           74.00000000           10.00000000            4.00000000            1.00000000            8.00000000            5.00000000            8.00000000            6.00000000            9.00000000            5.00000000            7.00000000            4.00000000            7.00000000 
       17001.06941171            2.00000000       171918.39062500       510590.78125000       702307.81250000       163006.78125000       508796.65625000        18338.00000000           91.00000000            7.00000000            2.00000000            8.00000000            7.00000000           11.00000000            5.00000000            7.00000000            8.00000000            4.00000000            6.00000000           13.00000000           13.00000000 
       17005.63237276            2.00000000       171931.39062500       510278.78125000       702153.81250000       163009.78125000       508485.34375000        18342.00000000           69.00000000            3.00000000            5.00000000            3.00000000            6.00000000           11.00000000            5.00000000            8.00000000            8.00000000            2.00000000            8.00000000            3.00000000            7.00000000 
       17011.21267531            2.00000000       171990.40625000       510538.81250000       702808.81250000       163221.79687500       508740.56250000        18382.00000000           76.00000000            7.00000000            7.00000000            6.00000000            1.00000000            5.00000000           11.00000000            7.00000000            7.00000000            6.00000000            9.00000000            4.00000000            6.00000000 
       17016.09846571            2.00000000       171705.39062500       509821.78125000       701912.75000000       163077.78125000       508031.03125000        18331.00000000           83.00000000            9.00000000            8.00000000            8.00000000            5.00000000            8.00000000            1.00000000            5.00000000            6.00000000            6.00000000            4.00000000           13.00000000           10.00000000 
       17021.43164259            2.00000000       171861.39062500       509443.78125000       701917.81250000       163150.78125000       507684.75000000        18017.00000000           87.00000000            7.00000000            6.00000000            8.00000000           10.00000000            8.00000000            5.00000000            9.00000000            4.00000000            3.00000000           11.00000000            7.00000000            9.00000000 
       17026.89528807            2.00000000       172090.39062500       510275.78125000       703062.81250000       163454.78125000       508479.46875000        18372.00000000           78.00000000            5.00000000            6.00000000            6.00000000            4.00000000           11.00000000            5.00000000            9.00000000            9.00000000            3.00000000            6.00000000            6.00000000            8.00000000 
       17031.28146463            2.00000000       172186.39062500       510682.78125000       704084.81250000       163762.79687500       508874.75000000        18478.00000000           90.00000000            5.00000000            5.00000000            6.00000000            6.00000000            5.00000000            7.00000000           11.00000000            7.00000000            5.00000000           13.00000000            8.00000000           12.00000000 
       17036.49698179            2.00000000       171637.39062500       509861.78125000       702972.81250000       163561.78125000       508065.46875000        18387.00000000           93.00000000            7.00000000            7.00000000            5.00000000           13.00000000           15.00000000            5.00000000            7.00000000            7.00000000            4.00000000           12.00000000            9.00000000            2.00000000 
       17041.33374831            2.00000000       171863.39062500       510047.78125000       703778.81250000       163866.78125000       508255.84375000        18335.00000000           72.00000000            5.00000000            6.00000000            4.00000000            9.00000000            7.00000000            4.00000000            8.00000000            7.00000000            4.00000000            7.00000000            3.00000000            8.00000000 
       17045.98219409            2.00000000       172232.39062500       510317.78125000       703979.81250000       163921.79687500       508533.62500000        18245.00000000           91.00000000            3.00000000            4.00000000            7.00000000            4.00000000           15.00000000            6.00000000           12.00000000            6.00000000            7.00000000           11.00000000           10.00000000            6.00000000 
       17051.01558143            2.00000000       172165.40625000       510037.81250000       704091.81250000       164038.79687500       508272.84375000        18057.00000000           86.00000000            7.00000000            9.00000000            5.00000000           10.00000000            4.00000000            6.00000000            4.00000000           10.00000000            9.00000000           10.00000000            4.00000000            8.00000000 
       17055.86065277            2.00000000       172202.39062500       509696.78125000       703845.75000000       164045.78125000       507901.12500000        18386.00000000           95.00000000            8.00000000            4.00000000            9.00000000            5.00000000           13.00000000           10.00000000            7.00000000            6.00000000            5.00000000            8.00000000           11.00000000            9.00000000 
       17061.09133985            2.00000000       172338.39062500       510106.78125000       704745.81250000       164262.78125000       508314.62500000        18335.00000000           90.00000000            8.00000000            4.00000000            9.00000000            2.00000000            8.00000000            7.00000000           11.00000000           12.00000000            5.00000000            3.00000000           14.00000000            7.00000000 
       17066.26141032            2.00000000       172205.39062500       510031.78125000       704867.81250000       164361.78125000       508253.84375000        18191.00000000           95.00000000            8.00000000            8.00000000           10.00000000            3.00000000            8.00000000            6.00000000            5.00000000            6.00000000            8.00000000            9.00000000           12.00000000           12.00000000 
       17071.37075024            2.00000000       172362.39062500       510360.78125000       705435.81250000       164575.79687500       508564.84375000        18365.00000000           85.00000000           10.00000000            1.00000000            4.00000000           10.00000000            7.00000000            5.00000000            5.00000000            9.00000000           11.00000000            4.00000000            9.00000000           10.00000000 
       17076.86672703            2.00000000       171933.39062500       508959.78125000       703997.81250000       164281.78125000       507163.34375000        18421.00000000           95.00000000            9.00000000            3.00000000            3.00000000           10.00000000           10.00000000            9.00000000           10.00000000            9.00000000            7.00000000            7.00000000            8.00000000           10.00000000 
       17081.47075069            2.00000000       171946.39062500       509171.78125000       704274.81250000       164363.78125000       507389.87500000        18263.00000000           95.00000000            5.00000000            4.00000000            6.00000000            7.00000000            6.00000000            8.00000000            9.00000000           10.00000000           10.00000000           15.00000000            5.00000000           10.00000000 
       17086.26926721            2.00000000       171983.39062500       509356.78125000       704973.81250000       164602.78125000       507604.25000000        17953.00000000           96.00000000            7.00000000            9.00000000           11.00000000            6.00000000            2.00000000            8.00000000            6.00000000           10.00000000            6.00000000            5.00000000           11.00000000           15.00000000 
       17091.45471468            2.00000000       172032.40625000       509239.81250000       704864.81250000       164555.79687500       507455.62500000        18284.00000000           98.00000000            4.00000000            5.00000000           11.00000000           15.00000000            7.00000000            9.00000000           10.00000000            9.00000000            3.00000000            9.00000000            8.00000000            8.00000000 
       17095.81037719            2.00000000       172170.39062500       509757.78125000       705799.75000000       164858.78125000       507963.96875000        18365.00000000           85.00000000            8.00000000            6.00000000           11.00000000            5.00000000            7.00000000           11.00000000            1.00000000            9.00000000            5.00000000           10.00000000            8.00000000            4.00000000 
       17100.80933141            2.00000000       171968.39062500       510046.78125000       706571.81250000       164993.78125000       508224.15625000        18652.00000000          117.00000000            8.00000000           10.00000000            6.00000000           14.00000000           13.00000000            6.00000000            9.00000000           10.00000000            9.00000000            7.00000000           10.00000000           15.00000000 
       17105.93952231            2.00000000       171779.39062500       506666.78125000       701874.81250000       163951.79687500       504894.25000000        18257.00000000          110.00000000           10.00000000            7.00000000            8.00000000            5.00000000            8.00000000            7.00000000            7.00000000            8.00000000           12.00000000           13.00000000            9.00000000           16.00000000 
       17110.68770868            2.00000000       173134.39062500       512501.78125000       710401.81250000       165922.78125000       510698.21875000        18366.00000000          118.00000000            8.00000000            8.00000000            9.00000000            7.00000000            8.00000000           14.00000000           13.00000000           14.00000000           15.00000000            3.00000000            8.00000000           11.00000000 
       17116.40188165            2.00000000       172865.39062500       510605.78125000       707805.81250000       165231.78125000       508805.09375000        18405.00000000          119.00000000            8.00000000            5.00000000           15.00000000            9.00000000           10.00000000           13.00000000           10.00000000            8.00000000            8.00000000            9.00000000           13.00000000           11.00000000 
       17120.83461569            2.00000000       172762.39062500       510539.78125000       707938.81250000       165269.79687500       508713.25000000        18674.00000000          127.00000000            8.00000000            6.00000000           15.00000000            9.00000000           11.00000000            8.00000000           18.00000000            8.00000000            8.00000000           14.00000000           10.00000000           12.00000000 
       17126.55561487            2.00000000       172526.39062500       508873.78125000       705556.81250000       164568.78125000       507088.28125000        18311.00000000          154.00000000            9.00000000           11.00000000           11.00000000           11.00000000           18.00000000           18.00000000           13.00000000           15.00000000           17.00000000            9.00000000           13.00000000            9.00000000 
       17131.70137206            2.00000000       172157.39062500       507481.78125000       703946.81250000       164028.79687500       505688.75000000        18440.00000000          165.00000000            7.00000000            6.00000000           14.00000000           23.00000000           10.00000000           14.00000000            9.00000000           20.00000000           13.00000000           12.00000000           19.00000000           18.00000000 
       17135.94896584            2.00000000       172189.39062500       506891.78125000       703285.81250000       163583.78125000       505107.56250000        18370.00000000          161.00000000           12.00000000           12.00000000            8.00000000           12.00000000           18.00000000           13.00000000           16.00000000           16.00000000            6.00000000           20.00000000           12.00000000           16.00000000 
       17141.35806209            2.00000000       171952.39062500       506219.78125000       702406.81250000       162871.78125000       504413.50000000        18624.00000000          216.00000000           19.00000000           16.00000000           11.00000000           21.00000000           16.00000000           17.00000000           17.00000000           21.00000000           20.00000000           22.00000000           19.00000000           17.00000000 
       17142.00223113            2.00000000       171912.39062500       506010.78125000       702038.81250000       162707.78125000       504216.50000000        18507.00000000          207.00000000           11.00000000           20.00000000           15.00000000           17.00000000           16.00000000           14.00000000           23.00000000           20.00000000           11.00000000           17.00000000           26.00000000           17.00000000 
       17142.51760145            2.00000000       171813.39062500       505472.78125000       701108.81250000       162438.78125000       503665.90625000        18658.00000000          237.00000000           14.00000000           16.00000000           17.00000000           14.00000000           29.00000000           17.00000000           18.00000000           27.00000000           20.00000000           24.00000000           22.00000000           19.00000000 
       17142.83972375            2.00000000       171790.39062500       505287.78125000       701347.81250000       162407.78125000       503477.65625000        18699.00000000          229.00000000           17.00000000           15.00000000           23.00000000           17.00000000           19.00000000           17.00000000           24.00000000           21.00000000           17.00000000           19.00000000           19.00000000           21.00000000 
       17143.35514477            2.00000000       171655.39062500       505048.78125000       700759.81250000       162177.78125000       503240.06250000        18693.00000000          222.00000000           20.00000000           16.00000000           15.00000000           19.00000000           20.00000000           27.00000000           20.00000000           16.00000000           14.00000000           22.00000000           16.00000000           17.00000000 
       17143.80616376            2.00000000       171614.40625000       504989.81250000       700863.81250000       162111.79687500       503190.21875000        18600.00000000          263.00000000           19.00000000           16.00000000           18.00000000           24.00000000           28.00000000           17.00000000           26.00000000           24.00000000           16.00000000           24.00000000           27.00000000           24.00000000 
       17144.19277048            2.00000000       171703.39062500       505022.78125000       700732.81250000       162018.78125000       503214.65625000        18688.00000000          257.00000000           12.00000000           12.00000000           29.00000000           21.00000000           29.00000000           19.00000000           14.00000000           22.00000000           16.00000000           23.00000000           26.00000000           34.00000000 
       17144.57939476            2.00000000       171632.39062500       505002.78125000       700790.81250000       161957.78125000       503200.75000000        18625.00000000          255.00000000           23.00000000           15.00000000           27.00000000           23.00000000           21.00000000           21.00000000           18.00000000           31.00000000           15.00000000           16.00000000           21.00000000           24.00000000 
       17145.03047860            2.00000000       171679.39062500       504985.78125000       700753.81250000       161813.78125000       503168.37500000        18786.00000000          245.00000000           23.00000000           15.00000000           21.00000000           20.00000000           20.00000000           31.00000000           23.00000000           16.00000000           15.00000000           19.00000000           22.00000000           20.00000000 
       17145.35269598            2.00000000       171707.39062500       504824.78125000       700608.81250000       161780.78125000       503009.87500000        18766.00000000          234.00000000           22.00000000           10.00000000           17.00000000           30.00000000           19.00000000           18.00000000           24.00000000           18.00000000           13.00000000           29.00000000           21.00000000           13.00000000 
       17145.80382080            2.00000000       171646.40625000       504867.81250000       700494.81250000       161680.79687500       503088.87500000        18389.00000000          264.00000000           18.00000000           13.00000000           18.00000000           19.00000000           28.00000000           23.00000000           24.00000000           26.00000000           17.00000000           19.00000000           26.00000000           33.00000000 
       17146.31942128            2.00000000       171606.39062500       504986.78125000       700567.75000000       161547.78125000       503181.25000000        18662.00000000          273.00000000           26.00000000           18.00000000           31.00000000           26.00000000           25.00000000           17.00000000           21.00000000           22.00000000           16.00000000           18.00000000           23.00000000           30.00000000 
       17146.83505298            2.00000000       171659.39062500       504929.78125000       700876.81250000       161514.78125000       503130.59375000        18598.00000000          274.00000000           21.00000000           15.00000000           15.00000000           27.00000000           29.00000000           26.00000000           22.00000000           29.00000000           19.00000000           24.00000000           25.00000000           22.00000000 
       17147.41517596            2.00000000       171699.39062500       504886.78125000       700663.81250000       161306.79687500       503059.87500000        18889.00000000          302.00000000           25.00000000           12.00000000           22.00000000           24.00000000           26.00000000           28.00000000           36.00000000           26.00000000           29.00000000           29.00000000           17.00000000           28.00000000 
       17147.93087401            2.00000000       171678.39062500       504958.78125000       701073.81250000       161246.78125000       503142.25000000        18778.00000000          293.00000000           25.00000000           23.00000000           31.00000000           24.00000000           29.00000000           24.00000000           28.00000000           25.00000000           15.00000000           17.00000000           27.00000000           25.00000000 
       17148.51107165            2.00000000       171706.39062500       504724.78125000       700642.81250000       160917.78125000       502920.59375000        18658.00000000          316.00000000           27.00000000           24.00000000           32.00000000           28.00000000           20.00000000           23.00000000           27.00000000           35.00000000           21.00000000           28.00000000           27.00000000           24.00000000 
       17148.96236380            2.00000000       171604.39062500       504690.78125000       700622.81250000       160824.79687500       502875.96875000        18770.00000000          314.00000000           26.00000000           20.00000000           32.00000000           27.00000000           32.00000000           21.00000000           27.00000000           22.00000000           20.00000000           27.00000000           36.00000000           24.00000000 
       17149.41367987            2.00000000       171632.39062500       504714.78125000       700644.81250000       160672.78125000       502906.40625000        18702.00000000          314.00000000           22.00000000           20.00000000           28.00000000           29.00000000           21.00000000           25.00000000           27.00000000           31.00000000           19.00000000           33.00000000           27.00000000           32.00000000 
       17149.86501986            2.00000000       171725.39062500       504740.78125000       700902.81250000       160538.79687500       502924.84375000        18780.00000000          334.00000000           27.00000000           17.00000000           21.00000000           33.00000000           18.00000000           27.00000000           36.00000000           35.00000000           18.00000000           38.00000000           47.00000000           17.00000000 
       17150.38086627            2.00000000       171708.39062500       504850.78125000       700932.81250000       160325.78125000       503045.56250000        18664.00000000          351.00000000           24.00000000           23.00000000           31.00000000           31.00000000           32.00000000           20.00000000           30.00000000           42.00000000           20.00000000           35.00000000           36.00000000           27.00000000 
       17150.89674392            2.00000000       172139.39062500       505914.78125000       702462.81250000       160443.78125000       504074.25000000        18992.00000000          381.00000000           25.00000000           16.00000000           46.00000000           27.00000000           40.00000000           29.00000000           35.00000000           34.00000000           24.00000000           30.00000000           39.00000000           36.00000000 
       17151.41265282            2.00000000       172402.39062500       506658.78125000       703836.81250000       160493.79687500       504821.53125000        18930.00000000          385.00000000           39.00000000           26.00000000           35.00000000           32.00000000           51.00000000           30.00000000           18.00000000           32.00000000           31.00000000           31.00000000           25.00000000           35.00000000 
       17151.86409874            2.00000000       172341.39062500       506768.78125000       703646.81250000       160182.78125000       504958.90625000        18641.00000000          409.00000000           43.00000000           30.00000000           31.00000000           41.00000000           23.00000000           31.00000000           36.00000000           34.00000000           27.00000000           46.00000000           25.00000000           42.00000000 
       17152.38006623            2.00000000       172468.39062500       506906.78125000       704160.81250000       160019.79687500       505066.59375000        18951.00000000          375.00000000           24.00000000           23.00000000           30.00000000           34.00000000           39.00000000           32.00000000           37.00000000           33.00000000           26.00000000           35.00000000           28.00000000           34.00000000 
       17152.96056702            2.00000000       172443.39062500       507088.78125000       704127.81250000       159611.78125000       505223.09375000        19209.00000000          433.00000000           31.00000000           35.00000000           40.00000000           52.00000000           32.00000000           35.00000000           32.00000000           40.00000000           35.00000000           33.00000000           37.00000000           31.00000000 
       17153.41209498            2.00000000       172504.39062500       507188.78125000       704601.81250000       159394.78125000       505362.31250000        18798.00000000          441.00000000           42.00000000           27.00000000           29.00000000           34.00000000           46.00000000           34.00000000           38.00000000           46.00000000           23.00000000           35.00000000           38.00000000           49.00000000 
       17153.99266609            2.00000000       172553.40625000       507411.81250000       704834.81250000       158971.79687500       505569.87500000        18950.00000000          464.00000000           29.00000000           30.00000000           29.00000000           49.00000000           40.00000000           39.00000000           36.00000000           49.00000000           32.00000000           35.00000000           44.00000000           52.00000000 
       17154.50876252            2.00000000       172545.39062500       507378.78125000       704915.81250000       158579.78125000       505520.03125000        19126.00000000          472.00000000           37.00000000           26.00000000           36.00000000           42.00000000           54.00000000           40.00000000           34.00000000           38.00000000           47.00000000           31.00000000           39.00000000           48.00000000 
       17155.02489021            2.00000000       172594.39062500       507602.78125000       705117.81250000       158118.79687500       505743.96875000        19118.00000000          507.00000000           37.00000000           34.00000000           36.00000000           39.00000000           34.00000000           39.00000000           64.00000000           45.00000000           29.00000000           41.00000000           45.00000000           64.00000000 
       17155.67009379            2.00000000       172549.39062500       507670.78125000       705275.81250000       157560.78125000       505803.34375000        19205.00000000          588.00000000           55.00000000           29.00000000           55.00000000           48.00000000           52.00000000           38.00000000           59.00000000           47.00000000           44.00000000           47.00000000           63.00000000           51.00000000 
       17156.25081879            2.00000000       172658.39062500       507782.78125000       705507.81250000       156985.78125000       505912.71875000        19228.00000000          590.00000000           58.00000000           31.00000000           53.00000000           59.00000000           44.00000000           45.00000000           62.00000000           57.00000000           32.00000000           42.00000000           53.00000000           54.00000000 
       17156.70252116            2.00000000       172605.40625000       507902.81250000       705425.81250000       156393.79687500       506023.62500000        19318.00000000          687.00000000           59.00000000           39.00000000           53.00000000           62.00000000           62.00000000           45.00000000           57.00000000           65.00000000           46.00000000           57.00000000           64.00000000           78.00000000 
       17157.15424747            2.00000000       172653.39062500       507945.78125000       705801.81250000       155823.78125000       506065.75000000        19325.00000000          722.00000000           61.00000000           55.00000000           59.00000000           59.00000000           67.00000000           66.00000000           56.00000000           49.00000000           51.00000000           45.00000000           68.00000000           86.00000000 
       17157.60599773            2.00000000       172671.39062500       508096.78125000       705635.81250000       155006.78125000       506206.56250000        19425.00000000          707.00000000           46.00000000           45.00000000           61.00000000           50.00000000           68.00000000           56.00000000           69.00000000           65.00000000           40.00000000           63.00000000           73.00000000           71.00000000 
       17157.99323130            2.00000000       172762.39062500       508231.78125000       705958.81250000       154489.78125000       506330.15625000        19538.00000000          717.00000000           63.00000000           44.00000000           66.00000000           73.00000000           51.00000000           53.00000000           68.00000000           76.00000000           36.00000000           60.00000000           61.00000000           66.00000000 
       17158.25139680            2.00000000       172748.39062500       508354.78125000       706002.81250000       153788.78125000       506430.25000000        19771.00000000          821.00000000           59.00000000           48.00000000           63.00000000           78.00000000           74.00000000           65.00000000           71.00000000           78.00000000           49.00000000           72.00000000           73.00000000           91.00000000 
       17158.70320522            2.00000000       172741.39062500       508223.78125000       706154.81250000       152998.78125000       506301.75000000        19750.00000000          873.00000000           73.00000000           55.00000000           61.00000000           65.00000000           88.00000000           71.00000000           73.00000000           72.00000000           69.00000000           77.00000000           73.00000000           96.00000000 
       17159.09048866            2.00000000       172714.39062500       508465.78125000       706190.81250000       152061.79687500       506539.09375000        19789.00000000          922.00000000           66.00000000           46.00000000           77.00000000           80.00000000           87.00000000           84.00000000           86.00000000          101.00000000           56.00000000           91.00000000           81.00000000           67.00000000 
       17159.54234157            2.00000000       172794.39062500       508344.78125000       705956.81250000       150898.78125000       506408.90625000        19889.00000000          939.00000000           71.00000000           59.00000000           73.00000000           88.00000000           91.00000000           71.00000000          103.00000000           82.00000000           56.00000000           71.00000000           88.00000000           86.00000000 
       17160.05877424            2.00000000       172557.39062500       507598.78125000       704958.81250000       149297.79687500       505666.71875000        19879.00000000         1033.00000000           82.00000000           67.00000000           96.00000000           89.00000000           94.00000000           81.00000000           94.00000000           85.00000000           75.00000000           80.00000000           96.00000000           94.00000000 
       17160.57523821            2.00000000       172607.39062500       507679.78125000       704667.81250000       147677.78125000       505703.31250000        20337.00000000         1186.00000000          102.00000000           65.00000000           83.00000000          111.00000000          105.00000000           94.00000000          115.00000000          131.00000000           71.00000000           91.00000000          110.00000000          108.00000000 
       17161.22086218            2.00000000       172585.39062500       507533.78125000       704667.81250000       145892.78125000       505565.93750000        20253.00000000         1287.00000000          106.00000000           75.00000000          116.00000000          114.00000000          107.00000000           86.00000000          109.00000000          126.00000000           85.00000000          105.00000000          138.00000000          120.00000000 
       17161.67282806            2.00000000       172515.39062500       507408.78125000       704186.81250000       144097.78125000       505417.68750000        20500.00000000         1372.00000000          114.00000000           85.00000000          119.00000000          121.00000000          117.00000000          104.00000000          109.00000000          132.00000000           86.00000000          111.00000000          127.00000000          147.00000000 
       17162.25396226            2.00000000       172505.39062500       507489.78125000       704260.81250000       141877.78125000       505457.59375000        20924.00000000         1606.00000000          147.00000000           82.00000000          136.00000000          143.00000000          155.00000000          112.00000000          133.00000000          172.00000000          112.00000000          111.00000000          140.00000000          163.00000000 
       17162.89971341            2.00000000       172488.39062500       507210.78125000       703604.81250000       139154.79687500       505157.50000000        21155.00000000         1663.00000000          136.00000000          113.00000000          138.00000000          150.00000000          122.00000000          130.00000000          157.00000000          149.00000000          128.00000000          151.00000000          136.00000000          153.00000000 
       17163.61009617            2.00000000       172528.39062500       507333.78125000       703614.81250000       136182.78125000       505247.81250000        21490.00000000         1873.00000000          139.00000000          124.00000000          161.00000000          153.00000000          173.00000000          163.00000000          161.00000000          176.00000000          131.00000000          162.00000000          176.00000000          154.00000000 
       17164.19136247            2.00000000       172491.39062500       506980.78125000       702986.81250000       133093.78125000       504888.40625000        21572.00000000         2038.00000000          158.00000000          143.00000000          157.00000000          172.00000000          171.00000000          158.00000000          175.00000000          211.00000000          132.00000000          176.00000000          209.00000000          176.00000000 
       17164.77266840            2.00000000       173509.40625000       509690.81250000       706327.81250000       130738.79687500       507537.03125000        22092.00000000         2165.00000000          186.00000000          114.00000000          163.00000000          195.00000000          210.00000000          172.00000000          199.00000000          175.00000000          143.00000000          205.00000000          187.00000000          216.00000000 
       17165.41861038            2.00000000       173512.39062500       509503.78125000       706041.81250000       127522.78125000       507327.96875000        22329.00000000         2339.00000000          162.00000000          139.00000000          198.00000000          215.00000000          204.00000000          190.00000000          197.00000000          244.00000000          154.00000000          177.00000000          224.00000000          235.00000000 
       17165.87079888            2.00000000       173477.39062500       509382.78125000       705687.81250000       125286.78125000       507173.75000000        22679.00000000         2468.00000000          187.00000000          154.00000000          220.00000000          239.00000000          236.00000000          211.00000000          212.00000000          212.00000000          154.00000000          200.00000000          214.00000000          229.00000000 
       17166.45221934            2.00000000       173440.40625000       509268.81250000       705472.81250000       122702.79687500       507051.78125000        22767.00000000         2605.00000000          190.00000000          184.00000000          207.00000000          230.00000000          246.00000000          226.00000000          226.00000000          264.00000000          147.00000000          214.00000000          227.00000000          244.00000000 
       17167.03367946            2.00000000       173394.39062500       508903.78125000       704638.75000000       120681.77343750       506673.43750000        22922.00000000         2731.00000000          212.00000000          148.00000000          207.00000000          269.00000000          283.00000000          213.00000000          223.00000000          240.00000000          193.00000000          221.00000000          247.00000000          275.00000000 
       17167.48595363            2.00000000       173362.39062500       508816.78125000       704499.81250000       119302.78125000       506603.75000000        22746.00000000         2823.00000000          233.00000000          193.00000000          245.00000000          215.00000000          234.00000000          218.00000000          270.00000000          273.00000000          198.00000000          216.00000000          249.00000000          279.00000000 
       17168.06748425            2.00000000       173305.39062500       508835.78125000       704296.81250000       118418.78125000       506560.62500000        23391.00000000         2853.00000000          238.00000000          156.00000000          243.00000000          270.00000000          269.00000000          239.00000000          264.00000000          267.00000000          168.00000000          234.00000000          246.00000000          259.00000000 
       17168.51981326            2.00000000       173372.39062500       508763.78125000       704140.81250000       118183.78125000       506500.87500000        23267.00000000         2814.00000000          243.00000000          161.00000000          228.00000000          228.00000000          278.00000000          218.00000000          258.00000000          263.00000000          195.00000000          222.00000000          253.00000000          267.00000000 
       17168.97216627            2.00000000       173296.40625000       508636.81250000       704275.81250000       118422.79687500       506383.59375000        23172.00000000         2873.00000000          236.00000000          193.00000000          225.00000000          256.00000000          254.00000000          236.00000000          254.00000000          253.00000000          193.00000000          261.00000000          245.00000000          267.00000000 
       17169.35991652            2.00000000       173290.39062500       508492.78125000       703844.75000000       118861.77343750       506214.34375000        23441.00000000         2909.00000000          215.00000000          166.00000000          242.00000000          265.00000000          279.00000000          209.00000000          253.00000000          268.00000000          199.00000000          250.00000000          285.00000000          278.00000000 
       17169.74768440            2.00000000       173305.39062500       508537.78125000       704205.81250000       119471.78125000       506304.25000000        22972.00000000         2852.00000000          224.00000000          175.00000000          225.00000000          255.00000000          249.00000000          234.00000000          253.00000000          244.00000000          201.00000000          236.00000000          281.00000000          275.00000000 
       17170.13546992            2.00000000       173215.39062500       508442.78125000       703923.81250000       120262.78906250       506201.09375000        23061.00000000         2727.00000000          215.00000000          145.00000000          243.00000000          223.00000000          239.00000000          228.00000000          256.00000000          259.00000000          159.00000000          215.00000000          278.00000000          267.00000000 
       17170.58790864            2.00000000       173194.39062500       508396.78125000       704212.81250000       121296.78125000       506160.96875000        23002.00000000         2700.00000000          213.00000000          150.00000000          223.00000000          240.00000000          235.00000000          224.00000000          226.00000000          268.00000000          162.00000000          234.00000000          241.00000000          284.00000000 
       17171.04037137            2.00000000       173097.39062500       508325.78125000       704032.81250000       122174.78125000       506093.37500000        22970.00000000         2751.00000000          225.00000000          154.00000000          217.00000000          266.00000000          234.00000000          241.00000000          260.00000000          258.00000000          177.00000000          233.00000000          245.00000000          241.00000000 
       17171.55750103            2.00000000       173150.39062500       508455.78125000       704188.81250000       123228.78906250       506242.90625000        22761.00000000         2621.00000000          211.00000000          150.00000000          212.00000000          247.00000000          224.00000000          208.00000000          250.00000000          251.00000000          170.00000000          223.00000000          241.00000000          234.00000000 
       17172.07466205            2.00000000       173162.39062500       508265.78125000       704057.81250000       124214.78125000       506047.37500000        22827.00000000         2611.00000000          217.00000000          157.00000000          218.00000000          237.00000000          210.00000000          220.00000000          226.00000000          273.00000000          155.00000000          221.00000000          225.00000000          252.00000000 
       17172.59185442            2.00000000       173211.39062500       508077.78125000       703868.81250000       125203.78906250       505890.75000000        22509.00000000         2486.00000000          170.00000000          137.00000000          191.00000000          219.00000000          232.00000000          204.00000000          244.00000000          225.00000000          158.00000000          212.00000000          249.00000000          245.00000000 
       17173.23838900            2.00000000       173094.39062500       507997.78125000       703867.81250000       126142.78125000       505811.68750000        22503.00000000         2491.00000000          196.00000000          111.00000000          193.00000000          217.00000000          210.00000000          182.00000000          256.00000000          241.00000000          156.00000000          208.00000000          267.00000000          254.00000000 
       17173.75565195            2.00000000       173136.39062500       507708.78125000       703533.81250000       126757.78125000       505518.75000000        22557.00000000         2465.00000000          227.00000000          134.00000000          191.00000000          206.00000000          225.00000000          196.00000000          230.00000000          236.00000000          162.00000000          208.00000000          232.00000000          218.00000000 
       17174.33761027            2.00000000       173033.39062500       507579.78125000       703496.81250000       127464.78906250       505376.28125000        22703.00000000         2537.00000000          194.00000000          154.00000000          196.00000000          235.00000000          234.00000000          191.00000000          207.00000000          222.00000000          178.00000000          225.00000000          243.00000000          258.00000000 
       17174.98427719            2.00000000       172972.39062500       507222.78125000       702789.81250000       127876.78906250       505045.59375000        22445.00000000         2354.00000000          160.00000000          120.00000000          195.00000000          226.00000000          203.00000000          182.00000000          214.00000000          244.00000000          160.00000000          202.00000000          218.00000000          230.00000000 
       17175.50164603            2.00000000       172917.39062500       507099.78125000       702921.81250000       128273.78125000       504943.25000000        22235.00000000         2338.00000000          178.00000000          153.00000000          206.00000000          208.00000000          188.00000000          183.00000000          201.00000000          190.00000000          150.00000000          222.00000000          238.00000000          221.00000000 
       17176.08372348            2.00000000       172900.39062500       507000.78125000       702809.81250000       128527.78906250       504851.12500000        22168.00000000         2355.00000000          198.00000000          143.00000000          183.00000000          199.00000000          220.00000000          175.00000000          232.00000000          214.00000000          175.00000000          185.00000000          196.00000000          235.00000000 
       17176.60115900            2.00000000       172821.39062500       506685.78125000       702507.81250000       128665.78125000       504553.84375000        21997.00000000         2351.00000000          199.00000000          126.00000000          204.00000000          210.00000000          198.00000000          198.00000000          202.00000000          218.00000000          168.00000000          210.00000000          188.00000000          230.00000000 
       17177.18331148            2.00000000       172803.39062500       506575.78125000       702225.81250000       128683.78125000       504422.43750000        22225.00000000         2295.00000000          159.00000000          139.00000000          209.00000000          218.00000000          206.00000000          181.00000000          190.00000000          225.00000000          152.00000000          202.00000000          228.00000000          186.00000000 
       17177.57143520            2.00000000       172797.39062500       506422.78125000       702012.81250000       128753.78906250       504289.28125000        22025.00000000         2268.00000000          157.00000000          132.00000000          184.00000000          210.00000000          209.00000000          177.00000000          188.00000000          213.00000000          155.00000000          205.00000000          231.00000000          207.00000000 
       17178.02426853            2.00000000       173424.39062500       507759.78125000       704141.81250000       129188.78906250       505632.15625000        21905.00000000         2261.00000000          204.00000000          156.00000000          191.00000000          186.00000000          182.00000000          175.00000000          189.00000000          208.00000000          162.00000000          192.00000000          206.00000000          210.00000000 
       17178.67121498            2.00000000       173663.39062500       508556.78125000       704799.81250000       129341.78125000       506397.71875000        22197.00000000         2231.00000000          176.00000000          128.00000000          177.00000000          206.00000000          184.00000000          192.00000000          189.00000000          202.00000000          171.00000000          186.00000000          213.00000000          207.00000000 
       17179.25350873            2.00000000       173609.39062500       508409.78125000       705096.81250000       129400.78906250       506243.15625000        22282.00000000         2205.00000000          172.00000000          140.00000000          190.00000000          186.00000000          196.00000000          160.00000000          187.00000000          219.00000000          144.00000000          195.00000000          201.00000000          215.00000000 
       17179.83584222            2.00000000       173620.39062500       508263.78125000       704716.81250000       129351.78125000       506112.12500000        22133.00000000         2210.00000000          161.00000000          132.00000000          165.00000000          201.00000000          207.00000000          169.00000000          184.00000000          203.00000000          160.00000000          178.00000000          223.00000000          227.00000000 
       17180.35350536            2.00000000       173558.39062500       508108.78125000       704647.81250000       129377.78125000       505973.34375000        21971.00000000         2285.00000000          208.00000000          134.00000000          177.00000000          208.00000000          213.00000000          144.00000000          168.00000000          220.00000000          155.00000000          220.00000000          214.00000000          224.00000000 
       17181.00062845            2.00000000       173491.39062500       508145.78125000       704545.81250000       129366.78125000       506009.81250000        21975.00000000         2242.00000000          191.00000000          114.00000000          188.00000000          209.00000000          197.00000000          189.00000000          191.00000000          244.00000000          142.00000000          178.00000000          194.00000000          205.00000000 
       17181.58308119            2.00000000       173511.39062500       508195.78125000       704661.81250000       129441.78906250       506056.53125000        22007.00000000         2247.00000000          173.00000000          131.00000000          177.00000000          195.00000000          193.00000000          198.00000000          197.00000000          194.00000000          146.00000000          200.00000000          215.00000000          228.00000000 
       17182.10085033            2.00000000       173398.39062500       508123.78125000       704702.81250000       129454.78906250       505989.56250000        21958.00000000         2174.00000000          167.00000000          144.00000000          177.00000000          209.00000000          203.00000000          165.00000000          200.00000000          192.00000000          135.00000000          176.00000000          198.00000000          208.00000000 
       17182.48919781            2.00000000       173503.39062500       508218.78125000       704687.81250000       129490.78125000       506067.12500000        22135.00000000         2156.00000000          146.00000000          116.00000000          184.00000000          179.00000000          193.00000000          169.00000000          205.00000000          220.00000000          153.00000000          189.00000000          211.00000000          191.00000000 
       17182.94229220            2.00000000       173360.39062500       508157.78125000       704922.81250000       129567.78125000       506039.75000000        21788.00000000         2188.00000000          187.00000000          111.00000000          167.00000000          214.00000000          196.00000000          142.00000000          195.00000000          212.00000000          155.00000000          207.00000000          212.00000000          190.00000000 
       17183.33067797            2.00000000       173394.39062500       508151.78125000       704653.81250000       129576.78906250       506021.28125000        21918.00000000         2134.00000000          194.00000000          142.00000000          182.00000000          181.00000000          197.00000000          156.00000000          180.00000000          181.00000000          142.00000000          157.00000000          208.00000000          214.00000000 
       17183.78381704            2.00000000       173379.39062500       508336.78125000       705035.81250000       129659.78906250       506233.03125000        21632.00000000         2110.00000000          174.00000000          141.00000000          162.00000000          176.00000000          198.00000000          175.00000000          179.00000000          192.00000000          128.00000000          193.00000000          189.00000000          203.00000000 
       17184.17224111            2.00000000       173436.39062500       508375.78125000       704975.81250000       129723.78906250       506242.03125000        21942.00000000         2149.00000000          189.00000000          113.00000000          208.00000000          180.00000000          197.00000000          162.00000000          209.00000000          200.00000000          143.00000000          172.00000000          171.00000000          205.00000000 
       17184.49594134            2.00000000       173305.39062500       508367.78125000       705054.81250000       129797.78125000       506246.18750000        21816.00000000         2016.00000000          147.00000000          123.00000000          150.00000000          178.00000000          153.00000000          178.00000000          190.00000000          202.00000000          137.00000000          160.00000000          193.00000000          205.00000000 
       17184.88439781            2.00000000       173367.39062500       508523.78125000       705425.81250000       129913.78125000       506385.84375000        21979.00000000         2113.00000000          144.00000000          131.00000000          188.00000000          191.00000000          212.00000000          173.00000000          201.00000000          180.00000000          139.00000000          183.00000000          180.00000000          191.00000000 
       17185.20812505            2.00000000       173213.39062500       508502.78125000       705115.81250000       129964.78125000       506363.87500000        21990.00000000         2054.00000000          168.00000000          127.00000000          171.00000000          177.00000000          179.00000000          157.00000000          188.00000000          185.00000000          130.00000000          173.00000000          207.00000000          192.00000000 
       17185.59661395            2.00000000       173159.39062500       508728.78125000       705427.81250000       130100.78125000       506589.78125000        21981.00000000         1996.00000000          159.00000000           97.00000000          183.00000000          167.00000000          188.00000000          153.00000000          167.00000000          194.00000000          130.00000000          162.00000000          175.00000000          221.00000000 
       17186.04987334            2.00000000       172953.39062500       508566.78125000       705188.81250000       130180.78125000       506439.53125000        21866.00000000         1982.00000000          144.00000000          120.00000000          148.00000000          161.00000000          190.00000000          157.00000000          167.00000000          174.00000000          126.00000000          183.00000000          201.00000000          211.00000000 
       17186.56791354            2.00000000       172788.39062500       508699.78125000       705262.81250000       130315.78906250       506582.09375000        21761.00000000         1991.00000000          187.00000000          108.00000000          167.00000000          190.00000000          157.00000000          157.00000000          193.00000000          188.00000000          131.00000000          151.00000000          166.00000000          196.00000000 
       17187.08598519            2.00000000       172440.39062500       508222.78125000       704863.81250000       130356.78906250       506103.71875000        21796.00000000         2064.00000000          161.00000000          124.00000000          157.00000000          194.00000000          196.00000000          166.00000000          172.00000000          206.00000000          132.00000000          181.00000000          187.00000000          188.00000000 
       17187.60408828            2.00000000       172147.39062500       508049.78125000       704476.81250000       130399.78906250       505923.25000000        21881.00000000         2047.00000000          176.00000000          123.00000000          154.00000000          184.00000000          181.00000000          144.00000000          185.00000000          197.00000000          148.00000000          160.00000000          200.00000000          195.00000000 
       17188.25176137            2.00000000       171922.39062500       507967.78125000       704446.81250000       130611.78906250       505849.59375000        21798.00000000         1931.00000000          174.00000000          114.00000000          154.00000000          157.00000000          155.00000000          159.00000000          171.00000000          165.00000000          129.00000000          164.00000000          200.00000000          189.00000000 
       17188.83470916            2.00000000       171732.39062500       507963.78125000       704570.81250000       130695.78906250       505846.37500000        21790.00000000         2037.00000000          181.00000000          117.00000000          157.00000000          173.00000000          203.00000000          155.00000000          167.00000000          220.00000000          117.00000000          179.00000000          171.00000000          197.00000000 
       17189.35291839            2.00000000       171533.39062500       507843.78125000       704318.81250000       130807.78125000       505721.00000000        21851.00000000         1978.00000000          146.00000000          121.00000000          167.00000000          194.00000000          184.00000000          149.00000000          179.00000000          208.00000000          126.00000000          169.00000000          178.00000000          157.00000000 
       17189.87115909            2.00000000       171264.39062500       507590.78125000       704181.81250000       130889.78125000       505482.03125000        21716.00000000         1867.00000000          143.00000000          123.00000000          148.00000000          169.00000000          191.00000000          148.00000000          164.00000000          166.00000000          117.00000000          145.00000000          173.00000000          180.00000000 
       17190.38943124            2.00000000       170970.39062500       507401.78125000       703731.81250000       130925.78125000       505268.56250000        21979.00000000         1961.00000000          148.00000000          117.00000000          184.00000000          158.00000000          175.00000000          151.00000000          174.00000000          178.00000000          122.00000000          170.00000000          181.00000000          203.00000000 
       17190.97252501            2.00000000       171062.39062500       508105.78125000       704717.81250000       131243.78125000       506018.56250000        21470.00000000         1924.00000000          150.00000000          121.00000000          163.00000000          151.00000000          170.00000000          144.00000000          142.00000000          222.00000000          114.00000000          189.00000000          180.00000000          178.00000000 
       17191.62045369            2.00000000       171635.39062500       509804.78125000       707357.81250000       131837.78125000       507662.12500000        21972.00000000         1997.00000000          150.00000000          109.00000000          155.00000000          175.00000000          189.00000000          162.00000000          178.00000000          190.00000000          133.00000000          168.00000000          190.00000000          198.00000000 
       17192.13883204            2.00000000       171321.39062500       509648.78125000       706940.81250000       131812.78125000       507539.96875000        21628.00000000         1915.00000000          154.00000000          124.00000000          151.00000000          171.00000000          175.00000000          167.00000000          190.00000000          170.00000000          142.00000000          148.00000000          175.00000000          148.00000000 
       17192.46283449            2.00000000       171216.39062500       509447.78125000       706938.81250000       131820.78125000       507322.93750000        21803.00000000         1892.00000000          160.00000000          130.00000000          150.00000000          171.00000000          160.00000000          137.00000000          162.00000000          171.00000000          115.00000000          159.00000000          180.00000000          197.00000000 
       17193.04606988            2.00000000       171183.39062500       509161.78125000       706512.81250000       131815.78125000       507069.34375000        21479.00000000         1987.00000000          171.00000000          132.00000000          187.00000000          186.00000000          166.00000000          166.00000000          177.00000000          198.00000000          130.00000000          155.00000000          158.00000000          161.00000000 
       17193.56453478            2.00000000       171040.39062500       508944.78125000       705956.81250000       131767.78125000       506819.53125000        21829.00000000         2020.00000000          166.00000000          111.00000000          164.00000000          159.00000000          193.00000000          164.00000000          191.00000000          189.00000000          140.00000000          170.00000000          198.00000000          175.00000000 
       17194.08303116            2.00000000       171071.39062500       508591.78125000       705913.81250000       131760.78125000       506484.28125000        21660.00000000         1906.00000000          147.00000000          113.00000000          146.00000000          185.00000000          164.00000000          155.00000000          180.00000000          183.00000000          115.00000000          157.00000000          158.00000000          203.00000000 
       17194.53674132            2.00000000       170912.39062500       507602.78125000       704343.81250000       131501.78125000       505525.21875000        21391.00000000         1870.00000000          141.00000000          110.00000000          160.00000000          159.00000000          153.00000000          146.00000000          178.00000000          178.00000000          149.00000000          169.00000000          142.00000000          185.00000000 
       17194.92565492            2.00000000       170838.39062500       506801.78125000       703230.81250000       131242.78125000       504715.68750000        21514.00000000         1892.00000000          172.00000000          105.00000000          146.00000000          165.00000000          170.00000000          135.00000000          175.00000000          161.00000000          123.00000000          157.00000000          187.00000000          196.00000000 
       17195.31458624            2.00000000       170919.39062500       505359.78125000       700965.81250000       130851.78125000       503263.93750000        21678.00000000         1913.00000000          154.00000000          132.00000000          139.00000000          156.00000000          160.00000000          151.00000000          185.00000000          200.00000000          123.00000000          162.00000000          173.00000000          178.00000000 
       17195.70353527            2.00000000       170842.39062500       503962.78125000       698948.81250000       130423.78125000       501919.12500000        21192.00000000         1899.00000000          155.00000000          109.00000000          145.00000000          180.00000000          171.00000000          147.00000000          200.00000000          176.00000000          127.00000000          138.00000000          180.00000000          171.00000000 
       17196.09250202            2.00000000       170783.39062500       501724.78125000       696063.81250000       129863.78906250       499719.00000000        20889.00000000         1844.00000000          133.00000000           97.00000000          155.00000000          150.00000000          179.00000000          134.00000000          157.00000000          173.00000000          144.00000000          162.00000000          171.00000000          189.00000000 
       17196.54631895            2.00000000       170875.39062500       498987.78125000       692130.81250000       129096.78906250       496967.03125000        21163.00000000         1840.00000000          149.00000000          117.00000000          143.00000000          153.00000000          175.00000000          131.00000000          134.00000000          189.00000000          124.00000000          163.00000000          184.00000000          178.00000000 
       17196.93532408            2.00000000       170885.39062500       495030.78125000       686591.81250000       128033.78906250       493028.21875000        21140.00000000         1862.00000000          141.00000000          111.00000000          155.00000000          146.00000000          172.00000000          153.00000000          173.00000000          174.00000000          119.00000000          155.00000000          181.00000000          182.00000000 
       17197.38918579            2.00000000       170776.39062500       489232.78125000       678832.81250000       126503.78906250       487312.53125000        20505.00000000         1799.00000000          143.00000000          102.00000000          131.00000000          160.00000000          172.00000000          137.00000000          174.00000000          158.00000000          109.00000000          144.00000000          180.00000000          189.00000000 
       17197.84307162            2.00000000       170723.39062500       481643.78125000       667949.81250000       124505.78906250       479761.81250000        20412.00000000         1812.00000000          146.00000000           91.00000000          151.00000000          159.00000000          167.00000000          164.00000000          145.00000000          201.00000000          100.00000000          145.00000000          170.00000000          173.00000000 
       17198.36182781            2.00000000       170856.39062500       474750.78125000       658512.81250000       122668.78125000       472900.96875000        20354.00000000         1853.00000000          147.00000000          126.00000000          139.00000000          153.00000000          145.00000000          142.00000000          151.00000000          180.00000000          132.00000000          165.00000000          174.00000000          199.00000000 
       17198.81576533            2.00000000       170701.39062500       470005.78125000       651815.81250000       121397.78125000       468199.21875000        20076.00000000         1785.00000000          143.00000000           88.00000000          132.00000000          165.00000000          182.00000000          146.00000000          150.00000000          197.00000000          131.00000000          129.00000000          157.00000000          165.00000000 
       17199.33458060            2.00000000       170755.39062500       466822.78125000       647313.81250000       120518.78125000       465008.90625000        20297.00000000         1725.00000000          124.00000000          108.00000000          137.00000000          158.00000000          160.00000000          131.00000000          157.00000000          149.00000000          118.00000000          137.00000000          170.00000000          176.00000000 
       17199.85342738            2.00000000       170720.39062500       466699.78125000       647397.81250000       120499.78125000       464893.18750000        20220.00000000         1804.00000000          148.00000000           86.00000000          178.00000000          135.00000000          163.00000000          134.00000000          151.00000000          160.00000000          114.00000000          156.00000000          199.00000000          180.00000000 
       17200.37230568            2.00000000       170653.39062500       471898.78125000       654182.81250000       121742.78125000       470032.34375000        20664.00000000         1826.00000000          152.00000000          114.00000000          162.00000000          168.00000000          174.00000000          141.00000000          132.00000000          150.00000000          126.00000000          151.00000000          162.00000000          194.00000000 
       17200.95608144            2.00000000       170669.39062500       482085.78125000       668667.81250000       124443.78125000       480112.21875000        21396.00000000         1890.00000000          151.00000000          127.00000000          151.00000000          177.00000000          171.00000000          155.00000000          151.00000000          163.00000000          105.00000000          161.00000000          179.00000000          199.00000000 
       17202.83740805            2.00000000       171248.39062500       505899.78125000       701697.75000000       130736.77343750       503763.00000000        22082.00000000         1974.00000000          193.00000000          124.00000000          174.00000000          172.00000000          177.00000000          157.00000000          161.00000000          189.00000000          116.00000000          143.00000000          168.00000000          200.00000000 
       17204.97873200            2.00000000       171955.40625000       507680.81250000       704103.81250000       131509.79687500       505537.46875000        22072.00000000         1975.00000000          144.00000000          100.00000000          172.00000000          181.00000000          195.00000000          141.00000000          184.00000000          198.00000000          126.00000000          180.00000000          160.00000000          194.00000000 
       17207.63991246            2.00000000       172991.39062500       508036.78125000       704716.81250000       132149.78125000       505881.75000000        22178.00000000         1984.00000000          141.00000000          122.00000000          152.00000000          190.00000000          176.00000000          152.00000000          191.00000000          165.00000000          122.00000000          188.00000000          177.00000000          208.00000000 
       17209.78244024            2.00000000       173778.39062500       508725.78125000       705685.81250000       132822.78125000       506558.59375000        22274.00000000         1934.00000000          131.00000000          119.00000000          178.00000000          164.00000000          157.00000000          173.00000000          172.00000000          172.00000000          135.00000000          153.00000000          175.00000000          205.00000000 
       17211.86055592            2.00000000       174129.39062500       508931.78125000       705898.81250000       133387.79687500       506813.71875000        21755.00000000         1856.00000000          143.00000000          114.00000000          161.00000000          162.00000000          165.00000000          138.00000000          151.00000000          182.00000000          113.00000000          164.00000000          173.00000000          190.00000000 
       17214.91370447            2.00000000       174132.39062500       508844.78125000       706083.81250000       134090.78125000       506668.03125000        22368.00000000         1942.00000000          170.00000000          102.00000000          178.00000000          185.00000000          184.00000000          132.00000000          171.00000000          192.00000000          128.00000000          155.00000000          169.00000000          176.00000000 
       17217.96794363            2.00000000       174191.39062500       509010.78125000       706701.81250000       134792.79687500       506878.21875000        21902.00000000         1914.00000000          176.00000000          110.00000000          153.00000000          172.00000000          169.00000000          150.00000000          156.00000000          168.00000000          130.00000000          160.00000000          173.00000000          197.00000000 
       17220.63317103            2.00000000       173724.39062500       507564.78125000       704391.81250000       134871.78125000       505405.12500000        22247.00000000         1883.00000000          167.00000000          114.00000000          172.00000000          169.00000000          176.00000000          148.00000000          179.00000000          152.00000000          121.00000000          169.00000000          162.00000000          154.00000000 
       17222.84398971            2.00000000       173801.39062500       507640.78125000       704861.81250000       135324.78125000       505516.65625000        21874.00000000         1848.00000000          136.00000000          109.00000000          147.00000000          179.00000000          182.00000000          129.00000000          177.00000000          166.00000000          139.00000000          172.00000000          157.00000000          155.00000000 
       17226.09623193            2.00000000       173804.39062500       507811.78125000       705178.81250000       135789.79687500       505702.03125000        21717.00000000         1892.00000000          137.00000000          121.00000000          168.00000000          157.00000000          176.00000000          133.00000000          167.00000000          180.00000000          128.00000000          174.00000000          164.00000000          187.00000000 
       17229.28462915            2.00000000       173952.39062500       507960.78125000       705605.81250000       135913.78125000       505822.12500000        22011.00000000         1860.00000000          155.00000000          102.00000000          168.00000000          150.00000000          165.00000000          148.00000000          166.00000000          172.00000000          127.00000000          150.00000000          174.00000000          183.00000000 
       17232.60442717            2.00000000       173704.39062500       507163.78125000       704463.81250000       135602.78125000       505035.21875000        21941.00000000         1814.00000000          137.00000000          103.00000000          151.00000000          149.00000000          169.00000000          141.00000000          139.00000000          182.00000000          120.00000000          157.00000000          166.00000000          200.00000000 
       17235.27421840            2.00000000       173706.40625000       507068.81250000       704662.81250000       135400.79687500       504952.53125000        21817.00000000         1958.00000000          157.00000000          124.00000000          154.00000000          153.00000000          201.00000000          142.00000000          177.00000000          178.00000000          136.00000000          183.00000000          174.00000000          179.00000000 
       17237.87969542            2.00000000       173741.39062500       507155.78125000       704651.81250000       135040.79687500       505029.25000000        21920.00000000         1828.00000000          150.00000000           98.00000000          169.00000000          157.00000000          166.00000000          121.00000000          183.00000000          164.00000000          127.00000000          141.00000000          183.00000000          169.00000000 
       17241.46352142            2.00000000       173691.39062500       506601.78125000       704205.81250000       134443.78125000       504516.12500000        21518.00000000         1847.00000000          137.00000000          110.00000000          152.00000000          168.00000000          163.00000000          134.00000000          154.00000000          177.00000000          120.00000000          170.00000000          187.00000000          175.00000000 
       17244.91844605            2.00000000       173764.39062500       506539.78125000       704020.81250000       133866.79687500       504422.84375000        21847.00000000         1870.00000000          144.00000000          121.00000000          130.00000000          182.00000000          170.00000000          153.00000000          174.00000000          183.00000000          101.00000000          172.00000000          164.00000000          176.00000000 
       17247.85296694            2.00000000       173778.39062500       506454.78125000       704068.81250000       133505.79687500       504336.00000000        21870.00000000         1884.00000000          148.00000000          121.00000000          157.00000000          184.00000000          165.00000000          137.00000000          150.00000000          184.00000000          126.00000000          168.00000000          170.00000000          174.00000000 
       17250.91898456            2.00000000       173875.39062500       506439.78125000       704373.81250000       133266.78125000       504320.18750000        21879.00000000         1895.00000000          158.00000000          116.00000000          123.00000000          179.00000000          187.00000000          131.00000000          169.00000000          179.00000000          115.00000000          160.00000000          188.00000000          190.00000000 
       17254.57354485            2.00000000       173764.39062500       505996.78125000       703712.81250000       132895.78125000       503875.78125000        21913.00000000         1893.00000000          157.00000000          116.00000000          119.00000000          159.00000000          193.00000000          148.00000000          150.00000000          194.00000000          119.00000000          180.00000000          166.00000000          192.00000000 
       17258.29496621            2.00000000       173755.39062500       505600.78125000       703342.81250000       132791.78125000       503461.93750000        22117.00000000         1854.00000000          143.00000000          109.00000000          159.00000000          163.00000000          182.00000000          156.00000000          181.00000000          154.00000000          137.00000000          136.00000000          153.00000000          181.00000000 
       17261.75668529            2.00000000       173715.39062500       505193.78125000       702686.81250000       132685.78125000       503079.40625000        21879.00000000         1969.00000000          128.00000000          120.00000000          188.00000000          179.00000000          182.00000000          162.00000000          171.00000000          165.00000000          125.00000000          172.00000000          175.00000000          202.00000000 
       17265.28515789            2.00000000       173843.39062500       505046.78125000       702763.81250000       132844.78125000       502921.53125000        21999.00000000         1957.00000000          156.00000000          131.00000000          151.00000000          174.00000000          173.00000000          150.00000000          170.00000000          176.00000000          138.00000000          182.00000000          174.00000000          182.00000000 
       17269.99204746            2.00000000       173716.39062500       504176.78125000       701653.81250000       132879.78125000       502062.37500000        21924.00000000         1942.00000000          157.00000000          112.00000000          165.00000000          177.00000000          178.00000000          150.00000000          160.00000000          176.00000000          124.00000000          168.00000000          190.00000000          185.00000000 
       17273.58932895            2.00000000       173742.39062500       504298.78125000       701729.81250000       133057.78125000       502188.53125000        21875.00000000         1967.00000000          155.00000000          117.00000000          163.00000000          183.00000000          167.00000000          159.00000000          179.00000000          183.00000000          124.00000000          179.00000000          166.00000000          192.00000000 
       17277.44990841            2.00000000       173589.39062500       503537.78125000       701030.81250000       133197.78125000       501416.03125000        22029.00000000         1942.00000000          138.00000000          111.00000000          168.00000000          186.00000000          184.00000000          142.00000000          177.00000000          180.00000000          119.00000000          151.00000000          180.00000000          206.00000000 
       17282.16347805            2.00000000       173129.39062500       501769.78125000       698652.81250000       133000.78125000       499668.03125000        21897.00000000         1928.00000000          172.00000000          105.00000000          151.00000000          175.00000000          149.00000000          146.00000000          156.00000000          188.00000000          141.00000000          173.00000000          196.00000000          176.00000000 
       17286.42100814            2.00000000       173093.39062500       501442.78125000       698357.81250000       133201.78125000       499330.81250000        22019.00000000         1884.00000000          164.00000000          108.00000000          162.00000000          165.00000000          145.00000000          154.00000000          177.00000000          180.00000000          108.00000000          172.00000000          173.00000000          176.00000000 
       17289.82855289            2.00000000       173169.39062500       501331.78125000       698498.81250000       133459.78125000       499241.25000000        21798.00000000         1771.00000000          132.00000000          113.00000000          159.00000000          168.00000000          142.00000000          126.00000000          166.00000000          161.00000000          132.00000000          147.00000000          153.00000000          172.00000000 
       17294.48334641            2.00000000       173104.39062500       500994.78125000       697944.81250000       133602.78125000       498906.03125000        21794.00000000         1779.00000000          158.00000000          123.00000000          147.00000000          141.00000000          155.00000000          163.00000000          165.00000000          155.00000000           91.00000000          142.00000000          173.00000000          166.00000000 
       17298.81260082            2.00000000       172913.39062500       500110.78125000       697103.81250000       133641.78125000       498023.84375000        21814.00000000         1822.00000000          142.00000000          112.00000000          157.00000000          193.00000000          164.00000000          156.00000000          155.00000000          157.00000000          112.00000000          137.00000000          157.00000000          180.00000000 
       17302.61889865            2.00000000       173013.39062500       500355.78125000       697669.81250000       133837.78125000       498271.96875000        21770.00000000         1855.00000000          126.00000000          111.00000000          150.00000000          148.00000000          181.00000000          166.00000000          151.00000000          166.00000000          113.00000000          143.00000000          197.00000000          203.00000000 
       17307.08360251            2.00000000       173720.39062500       502163.78125000       700111.81250000       134390.78125000       500036.62500000        22147.00000000         1758.00000000          155.00000000          113.00000000          145.00000000          149.00000000          159.00000000          135.00000000          150.00000000          186.00000000          109.00000000          142.00000000          158.00000000          157.00000000 
       17311.94488692            2.00000000       173818.39062500       502518.78125000       701081.81250000       134573.78125000       500421.50000000        21817.00000000         1841.00000000          149.00000000          108.00000000          130.00000000          168.00000000          143.00000000          149.00000000          172.00000000          182.00000000          124.00000000          179.00000000          174.00000000          163.00000000 
       17316.01997188            2.00000000       173922.39062500       502976.78125000       701508.81250000       134648.78125000       500844.15625000        22168.00000000         1806.00000000          134.00000000          122.00000000          149.00000000          153.00000000          161.00000000          135.00000000          155.00000000          190.00000000          108.00000000          155.00000000          159.00000000          185.00000000 
       17321.67570729            2.00000000       173598.39062500       502534.78125000       701487.75000000       134531.78125000       500410.03125000        22105.00000000         1811.00000000          154.00000000          100.00000000          167.00000000          135.00000000          169.00000000          153.00000000          169.00000000          150.00000000          111.00000000          144.00000000          192.00000000          167.00000000 
       17326.08449767            2.00000000       173561.39062500       497696.78125000       695123.81250000       133306.79687500       495625.84375000        21751.00000000         1940.00000000          163.00000000          130.00000000          152.00000000          163.00000000          182.00000000          145.00000000          185.00000000          166.00000000          127.00000000          159.00000000          165.00000000          203.00000000 
       17331.35168502            2.00000000       173997.39062500       502680.78125000       701958.81250000       134656.79687500       500526.21875000        22412.00000000         1880.00000000          134.00000000          102.00000000          156.00000000          150.00000000          178.00000000          162.00000000          169.00000000          184.00000000          125.00000000          157.00000000          161.00000000          202.00000000 
       17336.62209696            2.00000000       174360.40625000       503066.81250000       702684.81250000       134879.79687500       500914.56250000        22370.00000000         1818.00000000          149.00000000          106.00000000          165.00000000          158.00000000          173.00000000          132.00000000          151.00000000          162.00000000          120.00000000          148.00000000          180.00000000          174.00000000 
       17341.10448465            2.00000000       174135.39062500       502340.78125000       701823.81250000       134796.79687500       500213.62500000        22139.00000000         1843.00000000          180.00000000          115.00000000          149.00000000          160.00000000          150.00000000          151.00000000          171.00000000          164.00000000          109.00000000          162.00000000          151.00000000          181.00000000 
       17346.38086987            2.00000000       173847.39062500       501520.78125000       700820.81250000       134757.78125000       499393.50000000        22177.00000000         1923.00000000          141.00000000          109.00000000          163.00000000          173.00000000          177.00000000          155.00000000          171.00000000          178.00000000          129.00000000          145.00000000          163.00000000          219.00000000 
       17351.59447292            2.00000000       173889.39062500       501348.78125000       700908.81250000       134863.78125000       499219.46875000        22206.00000000         1834.00000000          141.00000000          110.00000000          141.00000000          170.00000000          169.00000000          140.00000000          136.00000000          181.00000000          121.00000000          145.00000000          193.00000000          187.00000000 
       17356.34885961            2.00000000       173985.39062500       501117.78125000       700498.81250000       134856.78125000       498990.59375000        22194.00000000         1944.00000000          152.00000000          108.00000000          136.00000000          149.00000000          162.00000000          173.00000000          174.00000000          190.00000000          135.00000000          188.00000000          168.00000000          209.00000000 
       17361.83286614            2.00000000       173225.39062500       498604.78125000       697246.81250000       134283.78125000       496529.03125000        21762.00000000         1814.00000000          129.00000000          128.00000000          148.00000000          141.00000000          169.00000000          151.00000000          157.00000000          154.00000000          134.00000000          176.00000000          156.00000000          171.00000000 
       17366.92355853            2.00000000       173431.39062500       499025.78125000       697916.81250000       134410.78125000       496946.84375000        21777.00000000         1842.00000000          131.00000000          105.00000000          156.00000000          166.00000000          186.00000000          158.00000000          175.00000000          155.00000000          114.00000000          162.00000000          171.00000000          163.00000000 
       17372.74517340            2.00000000       173461.39062500       498676.78125000       697634.81250000       134352.78125000       496554.84375000        22248.00000000         1883.00000000          165.00000000          144.00000000          161.00000000          161.00000000          165.00000000          138.00000000          153.00000000          182.00000000          118.00000000          160.00000000          165.00000000          171.00000000 
       17378.37205532            2.00000000       173458.39062500       498218.78125000       697578.81250000       134334.78125000       496130.56250000        21911.00000000         1923.00000000          148.00000000          130.00000000          177.00000000          148.00000000          163.00000000          151.00000000          152.00000000          164.00000000          132.00000000          158.00000000          198.00000000          202.00000000 
       17384.46646352            2.00000000       173624.39062500       498364.78125000       697562.81250000       134330.78125000       496243.15625000        22259.00000000         1898.00000000          143.00000000          109.00000000          154.00000000          160.00000000          156.00000000          165.00000000          155.00000000          179.00000000          119.00000000          178.00000000          210.00000000          170.00000000 
       17390.43254925            2.00000000       173663.39062500       497586.78125000       696962.81250000       134273.78125000       495488.40625000        22047.00000000         1837.00000000          153.00000000          114.00000000          144.00000000          153.00000000          160.00000000          141.00000000          168.00000000          173.00000000          117.00000000          173.00000000          179.00000000          162.00000000 
       17395.54013972            2.00000000       173620.39062500       497093.78125000       696536.81250000       134267.78125000       494984.96875000        22180.00000000         1856.00000000          140.00000000          103.00000000          158.00000000          177.00000000          170.00000000          139.00000000          198.00000000          158.00000000          111.00000000          151.00000000          172.00000000          179.00000000 
       17401.77947503            2.00000000       173782.39062500       497288.78125000       696749.81250000       134422.79687500       495178.12500000        22191.00000000         1920.00000000          153.00000000          118.00000000          137.00000000          167.00000000          171.00000000          141.00000000          164.00000000          173.00000000          136.00000000          161.00000000          204.00000000          195.00000000 
       17406.82733861            2.00000000       173876.40625000       497092.81250000       696968.81250000       134497.79687500       494988.50000000        22132.00000000         1866.00000000          135.00000000          120.00000000          127.00000000          166.00000000          164.00000000          164.00000000          163.00000000          181.00000000          128.00000000          135.00000000          183.00000000          200.00000000 
       17412.01110669            2.00000000       173677.40625000       496673.81250000       696356.81250000       134486.79687500       494588.40625000        21950.00000000         1811.00000000          131.00000000          113.00000000          137.00000000          151.00000000          161.00000000          153.00000000          185.00000000          171.00000000          108.00000000          165.00000000          167.00000000          169.00000000 
